File: ISoD/xrd_data/Ag_Melonat.xy
2.00000 22.000
2.18000 13.000
2.36000 20.000
2.54000 11.000
2.72000 11.000
2.90000 12.000
3.08000 9.000
3.26000 8.000
3.44000 7.000
3.62000 6.000
3.80000 7.000
3.98000 10.000
4.16000 7.000
4.34000 5.000
4.52000 9.000
4.70000 6.000
4.88000 4.000
5.06000 4.000
5.24000 6.000
5.42000 7.000
5.60000 9.000
5.78000 11.000
5.96000 6.000
6.14000 10.000
6.32000 10.000
6.50000 8.000
6.68000 11.000
6.86000 5.000
7.04000 5.000
7.22000 5.000
7.40000 4.000
7.58000 3.000
7.76000 10.000
7.94000 10.000
8.12000 8.000
8.30000 7.000
8.48000 6.000
8.66000 11.000
8.84000 11.000
9.02000 6.000
9.20000 8.000
9.38000 10.000
9.56000 6.000
9.74000 10.000
9.92000 7.000
10.10000 10.000
10.28000 6.000
10.46000 13.000
10.64000 5.000
10.82000 9.000
11.00000 9.000
11.18000 7.000
11.36000 12.000
11.54000 11.000
11.72000 8.000
11.90000 10.000
12.08000 13.000
12.26000 10.000
12.44000 6.000
12.62000 10.000
12.80000 8.000
12.98000 11.000
13.16000 8.000
13.34000 7.000
13.52000 8.000
13.70000 9.000
13.88000 8.000
14.06000 12.000
14.24000 13.000
14.42000 8.000
14.60000 11.000
14.78000 10.000
14.96000 12.000
15.14000 14.000
15.32000 12.000
15.50000 6.000
15.68000 9.000
15.86000 7.000
16.04000 11.000
16.22000 8.000
16.40000 8.000
16.58000 12.000
16.76000 12.000
16.94000 6.000
17.12000 11.000
17.30000 11.000
17.48000 9.000
17.66000 7.000
17.84000 11.000
18.02000 9.000
18.20000 6.000
18.38000 9.000
18.56000 12.000
18.74000 15.000
18.92000 8.000
19.10000 9.000
19.28000 7.000
19.46000 10.000
19.64000 7.000
19.82000 6.000
20.00000 10.000
20.18000 14.000
20.36000 10.000
20.54000 9.000
20.72000 9.000
20.90000 10.000
21.08000 8.000
21.26000 11.000
21.44000 8.000
21.62000 12.000
21.80000 8.000
21.98000 7.000
22.16000 8.000
22.34000 14.000
22.52000 7.000
22.70000 7.000
22.88000 9.000
23.06000 6.000
23.24000 6.000
23.42000 6.000
23.60000 6.000
23.78000 11.000
23.96000 7.000
24.14000 5.000
24.32000 10.000
24.50000 15.000
24.68000 11.000
24.86000 12.000
25.04000 13.000
25.22000 11.000
25.40000 10.000
25.58000 9.000
25.76000 16.000
25.94000 7.000
26.12000 6.000
26.30000 11.000
26.48000 13.000
26.66000 10.000
26.84000 5.000
27.02000 10.000
27.20000 8.000
27.38000 11.000
27.56000 15.000
27.74000 10.000
27.92000 11.000
28.10000 15.000
28.28000 10.000
28.46000 15.000
28.64000 13.000
28.82000 19.000
29.00000 17.000
29.18000 12.000
29.36000 9.000
29.54000 16.000
29.72000 14.000
29.90000 13.000
30.08000 9.000
30.26000 17.000
30.44000 10.000
30.62000 11.000
30.80000 6.000
30.98000 10.000
31.16000 12.000
31.34000 10.000
31.52000 13.000
31.70000 9.000
31.88000 4.000
32.06000 9.000
32.24000 11.000
32.42000 16.000
32.60000 11.000
32.78000 10.000
32.96000 13.000
33.14000 11.000
33.32000 9.000
33.50000 10.000
33.68000 12.000
33.86000 11.000
34.04000 12.000
34.22000 8.000
34.40000 12.000
34.58000 9.000
34.76000 10.000
34.94000 6.000
35.12000 11.000
35.30000 10.000
35.48000 8.000
35.66000 7.000
35.84000 7.000
36.02000 9.000
36.20000 11.000
36.38000 15.000
36.56000 11.000
36.74000 5.000
36.92000 11.000
37.10000 16.000
37.28000 6.000
37.46000 9.000
37.64000 13.000
37.82000 8.000
38.00000 10.000
38.18000 10.000
38.36000 14.000
38.54000 9.000
38.72000 9.000
38.90000 12.000
39.08000 8.000
39.26000 7.000
39.44000 11.000
39.62000 13.000
39.80000 11.000
39.98000 11.000
40.16000 12.000
40.34000 12.000
40.52000 13.000
40.70000 17.000
40.88000 7.000
41.06000 10.000
41.24000 10.000
41.42000 11.000
41.60000 11.000
41.78000 10.000
41.96000 9.000
42.14000 11.000
42.32000 7.000
42.50000 10.000
42.68000 4.000
42.86000 9.000
43.04000 11.000
43.22000 6.000
43.40000 9.000
43.58000 11.000
43.76000 6.000
43.94000 9.000
44.12000 10.000
44.30000 11.000
44.48000 9.000
44.66000 9.000
44.84000 12.000
45.02000 10.000
45.20000 8.000
45.38000 11.000
45.56000 10.000
45.74000 12.000
45.92000 9.000
46.10000 10.000
46.28000 5.000
46.46000 13.000
46.64000 9.000
46.82000 11.000
47.00000 13.000
47.18000 12.000
47.36000 11.000
47.54000 10.000
47.72000 12.000
47.90000 8.000
48.08000 12.000
48.26000 10.000
48.44000 10.000
48.62000 10.000
48.80000 14.000
48.98000 15.000
49.16000 14.000
49.34000 6.000
49.52000 14.000
49.70000 11.000
49.88000 12.000
50.06000 11.000
50.24000 15.000
50.42000 9.000
50.60000 9.000
50.78000 7.000
50.96000 15.000
51.14000 7.000
51.32000 10.000
51.50000 10.000
51.68000 16.000
51.86000 14.000
52.04000 11.000
52.22000 8.000
52.40000 10.000
52.58000 10.000
52.76000 6.000
52.94000 11.000
53.12000 8.000
53.30000 7.000
53.48000 11.000
53.66000 11.000
53.84000 10.000
54.02000 13.000
54.20000 6.000
54.38000 9.000
54.48500 11.000