File: ISoD/xrd_data/HSA09.xy
2.00000,2.000
2.21000,2.000
2.42000,2.000
2.63000,2.000
2.84000,3.000
3.05000,1.000
3.26000,468.000
3.47000,1004.000
3.68000,868.000
3.89000,804.000
4.10000,737.000
4.31000,659.000
4.52000,607.000
4.73000,532.000
4.94000,534.000
5.15000,499.000
5.36000,497.000
5.57000,473.000
5.78000,446.000
5.99000,426.000
6.20000,412.000
6.41000,386.000
6.62000,372.000
6.83000,393.000
7.04000,429.000
7.25000,379.000
7.46000,386.000
7.67000,413.000
7.88000,351.000
8.09000,372.000
8.30000,365.000
8.51000,364.000
8.72000,335.000
8.93000,345.000
9.14000,337.000
9.35000,331.000
9.56000,374.000
9.77000,361.000
9.98000,376.000
10.19000,380.000
10.40000,366.000
10.61000,367.000
10.82000,392.000
11.03000,365.000
11.24000,365.000
11.45000,392.000
11.66000,381.000
11.87000,401.000
12.08000,380.000
12.29000,385.000
12.50000,403.000
12.71000,393.000
12.92000,459.000
13.13000,439.000
13.34000,490.000
13.55000,476.000
13.76000,624.000
13.97000,572.000
14.18000,550.000
14.39000,516.000
14.60000,493.000
14.81000,475.000
15.02000,476.000
15.23000,505.000
15.44000,504.000
15.65000,519.000
15.86000,517.000
16.07000,496.000
16.28000,452.000
16.49000,483.000
16.70000,521.000
16.91000,483.000
17.12000,439.000
17.33000,431.000
17.54000,463.000
17.75000,436.000
17.96000,463.000
18.17000,429.000
18.38000,407.000
18.59000,435.000
18.80000,447.000
19.01000,463.000
19.22000,411.000
19.43000,437.000
19.64000,460.000
19.85000,397.000
20.06000,436.000
20.27000,401.000
20.48000,450.000
20.69000,426.000
20.90000,443.000
21.11000,474.000
21.32000,445.000
21.53000,461.000
21.74000,442.000
21.95000,419.000
22.16000,464.000
22.37000,490.000
22.58000,462.000
22.79000,473.000
23.00000,518.000
23.21000,522.000
23.42000,522.000
23.63000,520.000
23.84000,580.000
24.05000,568.000
24.26000,583.000
24.47000,569.000
24.68000,579.000
24.89000,621.000
25.10000,627.000
25.31000,598.000
25.52000,677.000
25.73000,690.000
25.94000,635.000
26.15000,642.000
26.36000,643.000
26.57000,656.000
26.78000,624.000
26.99000,602.000
27.20000,562.000
27.41000,531.000
27.62000,484.000
27.83000,485.000
28.04000,475.000
28.25000,432.000
28.46000,445.000
28.67000,438.000
28.88000,418.000
29.09000,419.000
29.30000,352.000
29.51000,401.000
29.72000,369.000
29.93000,341.000
30.14000,365.000
30.35000,344.000
30.56000,307.000
30.77000,294.000
30.98000,325.000
31.19000,317.000
31.40000,291.000
31.61000,291.000
31.82000,305.000
32.03000,270.000
32.24000,273.000
32.45000,260.000
32.66000,265.000
32.87000,263.000
33.08000,245.000
33.29000,243.000
33.50000,260.000
33.71000,245.000
33.92000,252.000
34.13000,263.000
34.34000,248.000
34.55000,225.000
34.76000,219.000
34.97000,224.000
35.18000,220.000
35.39000,243.000
35.60000,215.000
35.81000,211.000
36.02000,207.000
36.23000,194.000
36.44000,211.000
36.65000,202.000
36.86000,189.000
37.07000,205.000
37.28000,199.000
37.49000,199.000
37.70000,189.000
37.91000,186.000
38.12000,185.000
38.33000,186.000
38.54000,207.000
38.75000,187.000
38.96000,175.000
39.17000,168.000
39.38000,198.000
39.59000,186.000
39.80000,192.000
40.01000,164.000
40.22000,191.000
40.43000,173.000
40.64000,172.000
40.85000,166.000
41.06000,188.000
41.27000,198.000
41.48000,191.000
41.69000,208.000
41.90000,189.000
42.11000,202.000
42.32000,200.000
42.53000,189.000
42.74000,186.000
42.95000,192.000
43.16000,210.000
43.37000,194.000
43.58000,207.000
43.79000,180.000
44.00000,199.000
44.21000,183.000
44.42000,186.000
44.63000,187.000
44.84000,208.000
45.05000,171.000
45.26000,185.000
45.47000,191.000
45.68000,199.000
45.89000,160.000
46.10000,179.000
46.31000,175.000
46.52000,155.000
46.73000,184.000
46.94000,167.000
47.15000,174.000
47.36000,155.000
47.57000,159.000
47.78000,141.000
47.99000,150.000
48.20000,147.000
48.41000,137.000
48.62000,155.000
48.83000,144.000
49.04000,159.000
49.25000,136.000
49.46000,131.000
49.67000,145.000
49.88000,136.000
50.09000,150.000
50.30000,139.000
50.51000,151.000
50.72000,125.000
50.93000,146.000
51.14000,138.000
51.35000,158.000
51.56000,115.000
51.77000,139.000
51.98000,141.000
52.19000,157.000
52.40000,130.000
52.61000,157.000
52.82000,146.000
53.03000,133.000
53.24000,140.000
53.45000,127.000
53.66000,142.000
53.87000,133.000
54.08000,122.000
54.29000,143.000
54.50000,127.000
54.71000,116.000
54.92000,131.000
55.13000,144.000
55.34000,142.000
55.55000,126.000
55.76000,123.000
55.97000,118.000
56.18000,129.000
56.39000,118.000
56.60000,127.000
56.81000,118.000
57.02000,119.000
57.23000,106.000
57.44000,110.000
57.65000,113.000
57.86000,128.000
58.07000,105.000
58.28000,117.000
58.49000,107.000
58.70000,113.000
58.91000,110.000
59.12000,110.000
59.33000,95.000
59.54000,112.000
59.75000,111.000
59.96000,108.000
60.17000,95.000
60.38000,123.000
60.59000,111.000
60.80000,116.000
61.01000,106.000
61.22000,87.000
61.43000,111.000
61.64000,96.000
61.85000,95.000
61.98500,91.000