File: ISoD/xrd_data/HSC094_ungew.xy
2.00000 0.000
2.21000 0.000
2.42000 0.000
2.63000 0.000
2.84000 0.000
3.05000 0.000
3.26000 14.000
3.47000 16.000
3.68000 10.000
3.89000 13.000
4.10000 15.000
4.31000 15.000
4.52000 22.000
4.73000 18.000
4.94000 17.000
5.15000 10.000
5.36000 14.000
5.57000 16.000
5.78000 15.000
5.99000 16.000
6.20000 15.000
6.41000 16.000
6.62000 10.000
6.83000 16.000
7.04000 18.000
7.25000 16.000
7.46000 12.000
7.67000 21.000
7.88000 15.000
8.09000 18.000
8.30000 13.000
8.51000 16.000
8.72000 13.000
8.93000 19.000
9.14000 18.000
9.35000 13.000
9.56000 13.000
9.77000 16.000
9.98000 15.000
10.19000 14.000
10.40000 18.000
10.61000 25.000
10.82000 16.000
11.03000 15.000
11.24000 20.000
11.45000 22.000
11.66000 75.000
11.87000 13.000
12.08000 14.000
12.29000 10.000
12.50000 15.000
12.71000 15.000
12.92000 24.000
13.13000 18.000
13.34000 19.000
13.55000 18.000
13.76000 20.000
13.97000 17.000
14.18000 16.000
14.39000 16.000
14.60000 25.000
14.81000 55.000
15.02000 328.000
15.23000 28.000
15.44000 16.000
15.65000 15.000
15.86000 19.000
16.07000 23.000
16.28000 12.000
16.49000 14.000
16.70000 23.000
16.91000 10.000
17.12000 15.000
17.33000 12.000
17.54000 13.000
17.75000 13.000
17.96000 23.000
18.17000 25.000
18.38000 16.000
18.59000 11.000
18.80000 16.000
19.01000 18.000
19.22000 13.000
19.43000 20.000
19.64000 25.000
19.85000 18.000
20.06000 13.000
20.27000 17.000
20.48000 16.000
20.69000 13.000
20.90000 23.000
21.11000 30.000
21.32000 21.000
21.53000 78.000
21.74000 17.000
21.95000 14.000
22.16000 14.000
22.37000 16.000
22.58000 15.000
22.79000 23.000
23.00000 11.000
23.21000 19.000
23.42000 21.000
23.63000 12.000
23.84000 17.000
24.05000 14.000
24.26000 15.000
24.47000 28.000
24.68000 20.000
24.89000 23.000
25.10000 19.000
25.31000 19.000
25.52000 10.000
25.73000 13.000
25.94000 23.000
26.15000 111.000
26.36000 16.000
26.57000 15.000
26.78000 20.000
26.99000 17.000
27.20000 25.000
27.41000 21.000
27.62000 37.000
27.83000 30.000
28.04000 37.000
28.25000 340.000
28.46000 85.000
28.67000 31.000
28.88000 24.000
29.09000 19.000
29.30000 18.000
29.51000 25.000
29.72000 17.000
29.93000 22.000
30.14000 49.000
30.35000 31.000
30.56000 23.000
30.77000 26.000
30.98000 21.000
31.19000 19.000
31.40000 28.000
31.61000 39.000
31.82000 72.000
32.03000 20.000
32.24000 21.000
32.45000 31.000
32.66000 24.000
32.87000 20.000
33.08000 21.000
33.29000 23.000
33.50000 39.000
33.71000 94.000
33.92000 349.000
34.13000 42.000
34.34000 26.000
34.55000 28.000
34.76000 25.000
34.97000 19.000
35.18000 25.000
35.39000 21.000
35.60000 35.000
35.81000 24.000
36.02000 17.000
36.23000 24.000
36.44000 17.000
36.65000 14.000
36.86000 22.000
37.07000 20.000
37.28000 14.000
37.49000 27.000
37.70000 27.000
37.91000 25.000
38.12000 31.000
38.33000 27.000
38.54000 23.000
38.75000 11.000
38.96000 21.000
39.17000 23.000
39.38000 27.000
39.59000 20.000
39.80000 32.000
40.01000 24.000
40.22000 45.000
40.43000 398.000
40.64000 124.000
40.85000 29.000
41.06000 27.000
41.27000 26.000
41.48000 27.000
41.69000 24.000
41.90000 31.000
42.11000 18.000
42.32000 17.000
42.53000 20.000
42.74000 26.000
42.95000 35.000
43.16000 116.000
43.37000 38.000
43.58000 33.000
43.79000 19.000
44.00000 37.000
44.21000 130.000
44.42000 41.000
44.63000 34.000
44.84000 23.000
45.05000 18.000
45.26000 24.000
45.47000 38.000
45.68000 34.000
45.89000 20.000
46.10000 52.000
46.31000 25.000
46.52000 26.000
46.73000 21.000
46.94000 28.000
47.15000 19.000
47.36000 15.000
47.57000 24.000
47.78000 24.000
47.99000 31.000
48.20000 23.000
48.41000 24.000
48.62000 30.000
48.83000 26.000
49.04000 24.000
49.25000 27.000
49.46000 43.000
49.67000 21.000
49.88000 32.000
50.09000 155.000
50.30000 85.000
50.51000 31.000
50.72000 23.000
50.93000 25.000
51.14000 47.000
51.35000 45.000
51.56000 50.000
51.77000 34.000
51.98000 31.000
52.19000 22.000
52.40000 13.000
52.61000 22.000
52.82000 22.000
53.03000 18.000
53.24000 26.000
53.45000 35.000
53.66000 85.000
53.87000 56.000
54.08000 22.000
54.29000 21.000
54.50000 30.000
54.71000 23.000
54.92000 25.000
55.13000 20.000
55.34000 31.000
55.55000 29.000
55.76000 30.000
55.97000 53.000
56.18000 55.000
56.39000 34.000
56.60000 26.000
56.81000 24.000
57.02000 22.000
57.23000 30.000
57.44000 23.000
57.65000 35.000
57.86000 29.000
58.07000 28.000
58.28000 32.000
58.49000 35.000
58.70000 149.000
58.91000 28.000
59.12000 29.000
59.33000 29.000
59.54000 30.000
59.75000 26.000
59.96000 27.000
60.17000 27.000
60.38000 36.000
60.59000 24.000
60.80000 22.000
61.01000 33.000
61.22000 38.000
61.43000 29.000
61.64000 26.000
61.85000 32.000
61.98500 31.000