File: ISoD/xrd_data/HSC039_2.xy
2.00000 1.000
2.21000 1.000
2.42000 2.000
2.63000 1.000
2.84000 82.000
3.05000 230.000
3.26000 203.000
3.47000 195.000
3.68000 180.000
3.89000 165.000
4.10000 143.000
4.31000 151.000
4.52000 146.000
4.73000 139.000
4.94000 117.000
5.15000 140.000
5.36000 143.000
5.57000 118.000
5.78000 140.000
5.99000 144.000
6.20000 129.000
6.41000 148.000
6.62000 117.000
6.83000 129.000
7.04000 173.000
7.25000 560.000
7.46000 126.000
7.67000 142.000
7.88000 133.000
8.09000 118.000
8.30000 137.000
8.51000 130.000
8.72000 143.000
8.93000 130.000
9.14000 128.000
9.35000 130.000
9.56000 120.000
9.77000 137.000
9.98000 143.000
10.19000 440.000
10.40000 212.000
10.61000 134.000
10.82000 117.000
11.03000 130.000
11.24000 118.000
11.45000 127.000
11.66000 141.000
11.87000 153.000
12.08000 181.000
12.29000 145.000
12.50000 314.000
12.71000 336.000
12.92000 134.000
13.13000 125.000
13.34000 139.000
13.55000 118.000
13.76000 121.000
13.97000 123.000
14.18000 121.000
14.39000 138.000
14.60000 213.000
14.81000 131.000
15.02000 124.000
15.23000 142.000
15.44000 143.000
15.65000 131.000
15.86000 144.000
16.07000 143.000
16.28000 247.000
16.49000 133.000
16.70000 122.000
16.91000 120.000
17.12000 126.000
17.33000 123.000
17.54000 123.000
17.75000 138.000
17.96000 138.000
18.17000 125.000
18.38000 117.000
18.59000 146.000
18.80000 141.000
19.01000 182.000
19.22000 132.000
19.43000 142.000
19.64000 155.000
19.85000 145.000
20.06000 157.000
20.27000 144.000
20.48000 154.000
20.69000 189.000
20.90000 200.000
21.11000 179.000
21.32000 177.000
21.53000 215.000
21.74000 269.000
21.95000 681.000
22.16000 181.000
22.37000 160.000
22.58000 164.000
22.79000 147.000
23.00000 173.000
23.21000 386.000
23.42000 162.000
23.63000 166.000
23.84000 174.000
24.05000 255.000
24.26000 829.000
24.47000 251.000
24.68000 200.000
24.89000 187.000
25.10000 178.000
25.31000 187.000
25.52000 170.000
25.73000 166.000
25.94000 157.000
26.15000 225.000
26.36000 418.000
26.57000 661.000
26.78000 240.000
26.99000 182.000
27.20000 213.000
27.41000 592.000
27.62000 383.000
27.83000 171.000
28.04000 185.000
28.25000 206.000
28.46000 180.000
28.67000 184.000
28.88000 190.000
29.09000 207.000
29.30000 296.000
29.51000 382.000
29.72000 193.000
29.93000 194.000
30.14000 353.000
30.35000 1237.000
30.56000 209.000
30.77000 160.000
30.98000 195.000
31.19000 214.000
31.40000 202.000
31.61000 177.000
31.82000 268.000
32.03000 294.000
32.24000 190.000
32.45000 151.000
32.66000 169.000
32.87000 278.000
33.08000 442.000
33.29000 164.000
33.50000 197.000
33.71000 278.000
33.92000 445.000
34.13000 171.000
34.34000 155.000
34.55000 294.000
34.76000 402.000
34.97000 143.000
35.18000 141.000
35.39000 146.000
35.60000 164.000
35.81000 143.000
36.02000 173.000
36.23000 261.000
36.44000 155.000
36.65000 173.000
36.86000 198.000
37.07000 158.000
37.28000 109.000
37.49000 145.000
37.70000 131.000
37.91000 125.000
38.12000 129.000
38.33000 168.000
38.54000 175.000
38.75000 112.000
38.96000 125.000
39.17000 106.000
39.38000 119.000
39.59000 181.000
39.80000 275.000
40.01000 172.000
40.22000 127.000
40.43000 124.000
40.64000 146.000
40.85000 121.000
41.06000 121.000
41.27000 121.000
41.48000 103.000
41.69000 105.000
41.90000 163.000
42.11000 239.000
42.32000 138.000
42.53000 122.000
42.74000 124.000
42.95000 99.000
43.16000 109.000
43.37000 114.000
43.58000 148.000
43.79000 130.000
44.00000 197.000
44.21000 131.000
44.42000 120.000
44.63000 155.000
44.84000 365.000
45.05000 143.000
45.26000 124.000
45.47000 127.000
45.68000 122.000
45.89000 91.000
46.10000 99.000
46.31000 104.000
46.52000 117.000
46.73000 114.000
46.94000 92.000
47.15000 90.000
47.36000 91.000
47.57000 120.000
47.78000 122.000
47.99000 226.000
48.20000 113.000
48.41000 121.000
48.62000 188.000
48.83000 127.000
49.04000 135.000
49.25000 146.000
49.46000 98.000
49.67000 102.000
49.88000 101.000
50.09000 135.000
50.30000 127.000
50.51000 128.000
50.72000 101.000
50.93000 101.000
51.14000 108.000
51.35000 97.000
51.56000 99.000
51.77000 94.000
51.98000 86.000
52.19000 97.000
52.40000 112.000
52.61000 128.000
52.82000 186.000
53.03000 135.000
53.24000 163.000
53.45000 365.000
53.66000 107.000
53.87000 114.000
54.08000 103.000
54.29000 97.000
54.50000 104.000
54.71000 127.000
54.92000 141.000
55.13000 216.000
55.34000 128.000
55.55000 117.000
55.76000 105.000
55.97000 91.000
56.18000 112.000
56.39000 103.000
56.60000 88.000
56.81000 95.000
57.02000 124.000
57.23000 130.000
57.44000 160.000
57.65000 104.000
57.86000 107.000
58.07000 102.000
58.28000 119.000
58.49000 191.000
58.70000 96.000
58.91000 114.000
59.12000 121.000
59.33000 106.000
59.54000 208.000
59.75000 106.000
59.96000 141.000
60.17000 105.000
60.38000 90.000
60.59000 107.000
60.80000 97.000
61.01000 119.000
61.22000 136.000
61.43000 124.000
61.64000 140.000
61.85000 108.000
61.98500 111.000