File: ISoD/xrd_data/HSC010_ranges_combined.xy
2.0 1134.0
2.21 865.0
2.42 696.0
2.63 586.0
2.84 503.0
3.05 442.0
3.26 441.0
3.47 445.0
3.68 415.0
3.89 396.0
4.1 404.0
4.31 367.0
4.52 385.0
4.73 368.0
4.94 367.0
5.15 351.0
5.36 340.0
5.57 386.0
5.78 356.0
5.99 487.0
6.2 587.0
6.41 359.0
6.62 380.0
6.83 351.0
7.04 374.0
7.25 371.0
7.46 332.0
7.67 364.0
7.88 365.0
8.09 377.0
8.3 363.0
8.51 376.0
8.72 360.0
8.93 355.0
9.14 358.0
9.35 350.0
9.56 341.0
9.77 365.0
9.98 365.0
10.19 355.0
10.4 370.0
10.61 399.0
10.82 385.0
11.03 413.0
11.24 393.0
11.45 370.0
11.66 393.0
11.87 436.0
12.08 635.0
12.29 2432.0
12.5 586.0
12.71 500.0
12.92 503.0
13.13 502.0
13.34 660.0
13.55 521.0
13.76 476.0
13.97 470.0
14.18 444.0
14.39 437.0
14.6 441.0
14.81 420.0
15.02 431.0
15.23 410.0
15.44 399.0
15.65 434.0
15.86 462.0
16.07 408.0
16.28 453.0
16.49 519.0
16.7 433.0
16.91 487.0
17.12 480.0
17.33 438.0
17.54 445.0
17.75 458.0
17.96 489.0
18.17 495.0
18.38 499.0
18.59 487.0
18.8 520.0
19.01 475.0
19.22 466.0
19.43 606.0
19.64 608.0
19.85 497.0
20.06 510.0
20.27 518.0
20.48 481.0
20.69 530.0
20.9 515.0
21.11 521.0
21.32 533.0
21.53 564.0
21.74 544.0
21.95 554.0
22.16 582.0
22.37 573.0
22.58 536.0
22.79 514.0
23.0 509.0
23.21 574.0
23.42 587.0
23.63 567.0
23.84 570.0
24.05 547.0
24.26 541.0
24.47 564.0
24.68 596.0
24.89 610.0
25.1 590.0
25.31 644.0
25.52 636.0
25.73 876.0
25.94 767.0
26.15 824.0
26.36 1100.0
26.57 954.0
26.78 1128.0
26.99 1187.0
27.2 1517.0
27.41 1411.0
27.62 1420.0
27.83 1663.0
28.04 977.0
28.25 783.0
28.46 630.0
28.67 626.0
28.88 579.0
29.09 537.0
29.3 509.0
29.51 480.0
29.72 466.0
29.93 503.0
30.14 486.0
30.35 490.0
30.56 452.0
30.77 487.0
30.98 486.0
31.19 485.0
31.4 412.0
31.61 435.0
31.82 380.0
32.03 361.0
32.24 354.0
32.45 336.0
32.66 333.0
32.87 331.0
33.08 355.0
33.29 339.0
33.5 315.0
33.71 358.0
33.92 363.0
34.13 333.0
34.34 329.0
34.55 326.0
34.76 301.0
34.97 310.0
35.18 287.0
35.39 283.0
35.6 259.0
35.81 278.0
36.02 254.0
36.23 257.0
36.44 260.0
36.65 222.0
36.86 248.0
37.07 266.0
37.28 247.0
37.49 255.0
37.7 248.0
37.91 230.0
38.12 243.0
38.33 224.0
38.54 248.0
38.75 233.0
38.96 231.0
39.17 248.0
39.38 238.0
39.59 259.0
39.8 244.0
40.01 238.0
40.22 248.0
40.43 245.0
40.64 244.0
40.85 256.0
41.06 248.0
41.27 255.0
41.48 233.0
41.69 238.0
41.9 223.0
42.11 237.0
42.32 258.0
42.53 239.0
42.74 270.0
42.95 216.0
43.16 241.0
43.37 230.0
43.58 203.0
43.79 230.0
44.0 243.0
44.21 265.0
44.42 254.0
44.63 238.0
44.84 237.0
45.05 250.0
45.26 223.0
45.47 219.0
45.68 209.0
45.89 236.0
46.1 201.0
46.31 227.0
46.52 208.0
46.73 237.0
46.94 228.0
47.15 221.0
47.36 230.0
47.57 205.0
47.78 208.0
47.99 195.0
48.2 200.0
48.41 213.0
48.62 184.0
48.83 189.0
49.04 197.0
49.25 212.0
49.46 205.0
49.67 219.0
49.88 198.0
50.09 192.0
50.3 209.0
50.51 221.0
50.72 192.0
50.93 201.0
51.14 181.0
51.35 181.0
51.56 170.0
51.77 178.0
51.98 188.0
52.19 187.0
52.4 176.0
52.61 213.0
52.82 213.0
53.03 208.0
53.24 196.0
53.45 195.0
53.66 194.0
53.87 182.0
54.08 182.0
54.29 183.0
54.5 192.0
54.71 198.0
54.92 188.0
55.13 186.0
55.34 198.0
55.55 203.0
55.76 212.0
55.97 194.0
56.18 209.0
56.39 185.0
56.6 192.0
56.81 192.0
57.02 205.0
57.23 172.0
57.44 183.0
57.65 183.0
57.86 194.0
58.07 160.0
58.28 189.0
58.49 175.0
58.7 151.0
58.91 163.0
59.12 161.0
59.33 164.0
59.54 174.0
59.75 140.0
59.96 182.0
60.17 156.0
60.38 151.0
60.59 175.0
60.8 174.0
61.01 173.0
61.22 151.0
61.43 164.0
61.64 162.0
61.85 172.0
61.985 169.0