File: ISoD/xrd_data/HSC074_nPC.xy
2.00000 4.000
2.21000 4.000
2.42000 4.000
2.63000 11.000
2.84000 9.000
3.05000 4.000
3.26000 948.000
3.47000 2031.000
3.68000 1780.000
3.89000 1646.000
4.10000 1551.000
4.31000 1379.000
4.52000 1280.000
4.73000 1257.000
4.94000 1151.000
5.15000 1074.000
5.36000 1015.000
5.57000 952.000
5.78000 912.000
5.99000 896.000
6.20000 939.000
6.41000 822.000
6.62000 821.000
6.83000 779.000
7.04000 756.000
7.25000 746.000
7.46000 704.000
7.67000 717.000
7.88000 690.000
8.09000 717.000
8.30000 678.000
8.51000 683.000
8.72000 664.000
8.93000 695.000
9.14000 615.000
9.35000 636.000
9.56000 648.000
9.77000 660.000
9.98000 712.000
10.19000 689.000
10.40000 686.000
10.61000 726.000
10.82000 723.000
11.03000 822.000
11.24000 723.000
11.45000 697.000
11.66000 870.000
11.87000 1614.000
12.08000 2854.000
12.29000 962.000
12.50000 701.000
12.71000 694.000
12.92000 636.000
13.13000 638.000
13.34000 566.000
13.55000 609.000
13.76000 580.000
13.97000 593.000
14.18000 602.000
14.39000 596.000
14.60000 593.000
14.81000 591.000
15.02000 588.000
15.23000 609.000
15.44000 597.000
15.65000 565.000
15.86000 579.000
16.07000 572.000
16.28000 595.000
16.49000 622.000
16.70000 566.000
16.91000 618.000
17.12000 642.000
17.33000 676.000
17.54000 708.000
17.75000 702.000
17.96000 802.000
18.17000 775.000
18.38000 647.000
18.59000 668.000
18.80000 680.000
19.01000 661.000
19.22000 657.000
19.43000 644.000
19.64000 624.000
19.85000 632.000
20.06000 645.000
20.27000 620.000
20.48000 680.000
20.69000 766.000
20.90000 1331.000
21.11000 985.000
21.32000 705.000
21.53000 655.000
21.74000 656.000
21.95000 642.000
22.16000 653.000
22.37000 652.000
22.58000 631.000
22.79000 648.000
23.00000 653.000
23.21000 692.000
23.42000 655.000
23.63000 661.000
23.84000 684.000
24.05000 775.000
24.26000 1176.000
24.47000 961.000
24.68000 1021.000
24.89000 1137.000
25.10000 966.000
25.31000 898.000
25.52000 867.000
25.73000 835.000
25.94000 881.000
26.15000 894.000
26.36000 2046.000
26.57000 2212.000
26.78000 2145.000
26.99000 2044.000
27.20000 1906.000
27.41000 2026.000
27.62000 1953.000
27.83000 1605.000
28.04000 1550.000
28.25000 1164.000
28.46000 1012.000
28.67000 907.000
28.88000 1099.000
29.09000 2012.000
29.30000 1695.000
29.51000 1171.000
29.72000 978.000
29.93000 810.000
30.14000 731.000
30.35000 631.000
30.56000 650.000
30.77000 581.000
30.98000 629.000
31.19000 573.000
31.40000 576.000
31.61000 580.000
31.82000 631.000
32.03000 711.000
32.24000 1076.000
32.45000 854.000
32.66000 596.000
32.87000 533.000
33.08000 499.000
33.29000 552.000
33.50000 539.000
33.71000 549.000
33.92000 573.000
34.13000 555.000
34.34000 526.000
34.55000 520.000
34.76000 516.000
34.97000 553.000
35.18000 540.000
35.39000 521.000
35.60000 473.000
35.81000 499.000
36.02000 511.000
36.23000 492.000
36.44000 483.000
36.65000 489.000
36.86000 444.000
37.07000 461.000
37.28000 460.000
37.49000 436.000
37.70000 419.000
37.91000 466.000
38.12000 444.000
38.33000 418.000
38.54000 403.000
38.75000 438.000
38.96000 410.000
39.17000 429.000
39.38000 491.000
39.59000 472.000
39.80000 490.000
40.01000 482.000
40.22000 440.000
40.43000 425.000
40.64000 436.000
40.85000 429.000
41.06000 434.000
41.27000 409.000
41.48000 428.000
41.69000 416.000
41.90000 442.000
42.11000 445.000
42.32000 482.000
42.53000 528.000
42.74000 559.000
42.95000 471.000
43.16000 469.000
43.37000 453.000
43.58000 438.000
43.79000 440.000
44.00000 463.000
44.21000 546.000
44.42000 592.000
44.63000 723.000
44.84000 712.000
45.05000 621.000
45.26000 573.000
45.47000 500.000
45.68000 452.000
45.89000 456.000
46.10000 415.000
46.31000 403.000
46.52000 438.000
46.73000 416.000
46.94000 357.000
47.15000 385.000
47.36000 346.000
47.57000 347.000
47.78000 347.000
47.99000 338.000
48.20000 324.000
48.41000 314.000
48.62000 313.000
48.83000 320.000
49.04000 302.000
49.25000 340.000
49.46000 312.000
49.67000 332.000
49.88000 339.000
50.09000 323.000
50.30000 325.000
50.51000 382.000
50.72000 464.000
50.93000 463.000
51.14000 396.000
51.35000 351.000
51.56000 345.000
51.77000 304.000
51.98000 290.000
52.19000 322.000
52.40000 314.000
52.61000 306.000
52.82000 293.000
53.03000 308.000
53.24000 308.000
53.45000 305.000
53.66000 307.000
53.87000 308.000
54.08000 340.000
54.29000 402.000
54.50000 490.000
54.71000 405.000
54.92000 339.000
55.13000 339.000
55.34000 341.000
55.55000 346.000
55.76000 347.000
55.97000 399.000
56.18000 349.000
56.39000 374.000
56.60000 358.000
56.81000 351.000
57.02000 355.000
57.23000 338.000
57.44000 323.000
57.65000 319.000
57.86000 315.000
58.07000 310.000
58.28000 293.000
58.49000 293.000
58.70000 298.000
58.91000 287.000
59.12000 298.000
59.33000 271.000
59.54000 274.000
59.75000 288.000
59.96000 293.000
60.17000 260.000
60.38000 275.000
60.59000 277.000
60.80000 266.000
61.01000 276.000
61.22000 267.000
61.43000 273.000
61.64000 291.000
61.85000 258.000
61.98500 254.000