File: ISoD/xrd_data/HSC026_nachH2O_range_1.xy
2.00000 467.000
2.21000 332.000
2.42000 288.000
2.63000 248.000
2.84000 204.000
3.05000 192.000
3.26000 168.000
3.47000 156.000
3.68000 161.000
3.89000 149.000
4.10000 160.000
4.31000 166.000
4.52000 146.000
4.73000 153.000
4.94000 154.000
5.15000 157.000
5.36000 156.000
5.57000 150.000
5.78000 141.000
5.99000 155.000
6.20000 135.000
6.41000 155.000
6.62000 145.000
6.83000 151.000
7.04000 154.000
7.25000 151.000
7.46000 128.000
7.67000 136.000
7.88000 156.000
8.09000 149.000
8.30000 167.000
8.51000 215.000
8.72000 171.000
8.93000 162.000
9.14000 136.000
9.35000 145.000
9.56000 146.000
9.77000 163.000
9.98000 166.000
10.19000 144.000
10.40000 160.000
10.61000 149.000
10.82000 160.000
11.03000 183.000
11.24000 215.000
11.45000 381.000
11.66000 406.000
11.87000 294.000
12.08000 180.000
12.29000 149.000
12.50000 168.000
12.71000 195.000
12.92000 199.000
13.13000 181.000
13.34000 182.000
13.55000 169.000
13.76000 150.000
13.97000 147.000
14.18000 165.000
14.39000 143.000
14.60000 162.000
14.81000 163.000
15.02000 157.000
15.23000 140.000
15.44000 151.000
15.65000 165.000
15.86000 158.000
16.07000 150.000
16.28000 157.000
16.49000 154.000
16.70000 161.000
16.91000 156.000
17.12000 152.000
17.33000 159.000
17.54000 167.000
17.75000 172.000
17.96000 168.000
18.17000 186.000
18.38000 188.000
18.59000 172.000
18.80000 197.000
19.01000 203.000
19.22000 192.000
19.43000 194.000
19.64000 201.000
19.85000 201.000
20.06000 198.000
20.27000 215.000
20.48000 219.000
20.69000 216.000
20.90000 204.000
21.11000 215.000
21.32000 226.000
21.53000 226.000
21.74000 195.000
21.95000 227.000
22.16000 235.000
22.37000 226.000
22.58000 225.000
22.79000 218.000
23.00000 207.000
23.21000 256.000
23.42000 230.000
23.63000 234.000
23.84000 255.000
24.05000 249.000
24.26000 257.000
24.47000 239.000
24.68000 280.000
24.89000 273.000
25.10000 281.000
25.31000 375.000
25.52000 467.000
25.73000 375.000
25.94000 311.000
26.15000 277.000
26.36000 294.000
26.57000 301.000
26.78000 294.000
26.99000 351.000
27.20000 402.000
27.41000 483.000
27.62000 398.000
27.83000 289.000
28.04000 248.000
28.25000 223.000
28.46000 228.000
28.67000 207.000
28.88000 203.000
29.09000 225.000
29.30000 214.000
29.51000 184.000
29.72000 206.000
29.93000 202.000
30.14000 206.000
30.35000 213.000
30.56000 226.000
30.77000 199.000
30.98000 190.000
31.19000 184.000
31.40000 177.000
31.61000 170.000
31.82000 144.000
32.03000 170.000
32.24000 169.000
32.45000 159.000
32.66000 146.000
32.87000 138.000
33.08000 142.000
33.29000 138.000
33.50000 152.000
33.71000 161.000
33.92000 140.000
34.13000 148.000
34.34000 130.000
34.55000 124.000
34.76000 139.000
34.97000 137.000
35.18000 123.000
35.39000 133.000
35.60000 129.000
35.81000 116.000
36.02000 115.000
36.23000 112.000
36.44000 100.000
36.65000 102.000
36.86000 118.000
37.07000 104.000
37.28000 103.000
37.49000 103.000
37.70000 97.000
37.91000 104.000
38.12000 105.000
38.33000 98.000
38.54000 81.000
38.75000 95.000
38.96000 93.000
39.17000 114.000
39.38000 101.000
39.59000 95.000
39.80000 104.000
40.01000 99.000
40.22000 98.000
40.43000 106.000
40.64000 93.000
40.85000 113.000
41.06000 100.000
41.27000 97.000
41.48000 96.000
41.69000 103.000
41.90000 102.000
42.11000 102.000
42.32000 100.000
42.53000 101.000
42.74000 97.000
42.95000 105.000
43.16000 92.000
43.37000 97.000
43.58000 96.000
43.79000 96.000
44.00000 79.000
44.21000 95.000
44.42000 93.000
44.63000 77.000
44.84000 92.000
45.05000 102.000
45.26000 97.000
45.47000 94.000
45.68000 89.000
45.89000 95.000
46.10000 86.000
46.31000 85.000
46.52000 71.000
46.73000 88.000
46.94000 83.000
47.15000 80.000
47.36000 79.000
47.57000 83.000
47.78000 75.000
47.99000 77.000
48.20000 83.000
48.41000 88.000
48.62000 88.000
48.83000 76.000
49.04000 70.000
49.25000 84.000
49.46000 80.000
49.67000 67.000
49.88000 80.000
50.09000 73.000
50.30000 77.000
50.51000 75.000
50.72000 81.000
50.93000 77.000
51.14000 79.000
51.35000 75.000
51.56000 77.000
51.77000 80.000
51.98000 80.000
52.19000 73.000
52.40000 70.000
52.61000 79.000
52.82000 87.000
53.03000 84.000
53.24000 74.000
53.45000 73.000
53.66000 62.000
53.87000 63.000
54.08000 87.000
54.29000 69.000
54.50000 61.000
54.71000 72.000
54.92000 75.000
55.13000 89.000
55.34000 86.000
55.55000 62.000
55.76000 77.000
55.97000 84.000
56.18000 81.000
56.39000 73.000
56.60000 80.000
56.81000 75.000
57.02000 82.000
57.23000 68.000
57.44000 87.000
57.65000 64.000
57.86000 81.000
58.07000 66.000
58.28000 65.000
58.49000 58.000
58.70000 71.000
58.91000 65.000
59.12000 82.000
59.33000 83.000
59.54000 70.000
59.75000 56.000
59.96000 65.000
60.17000 79.000
60.38000 77.000
60.59000 82.000
60.80000 61.000
61.01000 67.000
61.22000 68.000
61.43000 78.000
61.64000 70.000
61.85000 61.000
61.98500 69.000