File: ISoD/xrd_data/HSC052.xy
2.00000 9.000
2.21000 9.000
2.42000 12.000
2.63000 9.000
2.84000 6.000
3.05000 27.000
3.26000 1015.000
3.47000 943.000
3.68000 925.000
3.89000 876.000
4.10000 866.000
4.31000 809.000
4.52000 834.000
4.73000 785.000
4.94000 820.000
5.15000 804.000
5.36000 791.000
5.57000 821.000
5.78000 810.000
5.99000 844.000
6.20000 829.000
6.41000 809.000
6.62000 883.000
6.83000 841.000
7.04000 865.000
7.25000 888.000
7.46000 925.000
7.67000 863.000
7.88000 906.000
8.09000 914.000
8.30000 900.000
8.51000 964.000
8.72000 939.000
8.93000 932.000
9.14000 951.000
9.35000 985.000
9.56000 980.000
9.77000 975.000
9.98000 993.000
10.19000 1043.000
10.40000 1030.000
10.61000 1090.000
10.82000 1037.000
11.03000 1071.000
11.24000 1050.000
11.45000 1067.000
11.66000 1072.000
11.87000 1172.000
12.08000 1195.000
12.29000 1262.000
12.50000 1445.000
12.71000 1593.000
12.92000 1652.000
13.13000 1607.000
13.34000 1698.000
13.55000 1557.000
13.76000 1606.000
13.97000 1490.000
14.18000 1566.000
14.39000 1467.000
14.60000 1491.000
14.81000 1441.000
15.02000 1444.000
15.23000 1405.000
15.44000 1461.000
15.65000 1385.000
15.86000 1373.000
16.07000 1355.000
16.28000 1311.000
16.49000 1410.000
16.70000 1374.000
16.91000 1395.000
17.12000 1394.000
17.33000 1401.000
17.54000 1409.000
17.75000 1453.000
17.96000 1493.000
18.17000 1463.000
18.38000 1436.000
18.59000 1452.000
18.80000 1426.000
19.01000 1401.000
19.22000 1440.000
19.43000 1355.000
19.64000 1348.000
19.85000 1378.000
20.06000 1397.000
20.27000 1443.000
20.48000 1382.000
20.69000 1388.000
20.90000 1353.000
21.11000 1426.000
21.32000 1455.000
21.53000 1428.000
21.74000 1417.000
21.95000 1403.000
22.16000 1476.000
22.37000 1410.000
22.58000 1420.000
22.79000 1360.000
23.00000 1389.000
23.21000 1380.000
23.42000 1448.000
23.63000 1376.000
23.84000 1437.000
24.05000 1381.000
24.26000 1389.000
24.47000 1408.000
24.68000 1516.000
24.89000 1507.000
25.10000 1598.000
25.31000 1597.000
25.52000 1668.000
25.73000 1824.000
25.94000 1999.000
26.15000 2206.000
26.36000 2479.000
26.57000 2853.000
26.78000 3420.000
26.99000 4141.000
27.20000 4826.000
27.41000 5712.000
27.62000 5558.000
27.83000 4606.000
28.04000 3493.000
28.25000 2698.000
28.46000 2156.000
28.67000 1824.000
28.88000 1675.000
29.09000 1555.000
29.30000 1473.000
29.51000 1414.000
29.72000 1279.000
29.93000 1193.000
30.14000 1216.000
30.35000 1161.000
30.56000 1168.000
30.77000 1046.000
30.98000 1079.000
31.19000 1033.000
31.40000 1021.000
31.61000 1059.000
31.82000 904.000
32.03000 983.000
32.24000 968.000
32.45000 875.000
32.66000 839.000
32.87000 880.000
33.08000 837.000
33.29000 862.000
33.50000 829.000
33.71000 810.000
33.92000 832.000
34.13000 755.000
34.34000 766.000
34.55000 765.000
34.76000 702.000
34.97000 729.000
35.18000 749.000
35.39000 717.000
35.60000 740.000
35.81000 702.000
36.02000 830.000
36.23000 694.000
36.44000 679.000
36.65000 672.000
36.86000 671.000
37.07000 654.000
37.28000 639.000
37.49000 674.000
37.70000 671.000
37.91000 648.000
38.12000 636.000
38.33000 661.000
38.54000 665.000
38.75000 606.000
38.96000 625.000
39.17000 645.000
39.38000 716.000
39.59000 655.000
39.80000 624.000
40.01000 615.000
40.22000 650.000
40.43000 635.000
40.64000 619.000
40.85000 621.000
41.06000 614.000
41.27000 662.000
41.48000 644.000
41.69000 618.000
41.90000 616.000
42.11000 614.000
42.32000 603.000
42.53000 577.000
42.74000 654.000
42.95000 621.000
43.16000 763.000
43.37000 644.000
43.58000 666.000
43.79000 688.000
44.00000 688.000
44.21000 694.000
44.42000 674.000
44.63000 673.000
44.84000 697.000
45.05000 670.000
45.26000 658.000
45.47000 622.000
45.68000 667.000
45.89000 661.000
46.10000 626.000
46.31000 631.000
46.52000 609.000
46.73000 629.000
46.94000 589.000
47.15000 646.000
47.36000 598.000
47.57000 642.000
47.78000 606.000
47.99000 580.000
48.20000 588.000
48.41000 571.000
48.62000 622.000
48.83000 561.000
49.04000 594.000
49.25000 553.000
49.46000 537.000
49.67000 553.000
49.88000 566.000
50.09000 547.000
50.30000 536.000
50.51000 559.000
50.72000 502.000
50.93000 549.000
51.14000 542.000
51.35000 497.000
51.56000 569.000
51.77000 531.000
51.98000 506.000
52.19000 540.000
52.40000 514.000
52.61000 520.000
52.82000 547.000
53.03000 557.000
53.24000 496.000
53.45000 484.000
53.66000 492.000
53.87000 504.000
54.08000 484.000
54.29000 637.000
54.50000 496.000
54.71000 488.000
54.92000 471.000
55.13000 494.000
55.34000 513.000
55.55000 506.000
55.76000 548.000
55.97000 531.000
56.18000 525.000
56.39000 559.000
56.60000 635.000
56.81000 529.000
57.02000 491.000
57.23000 551.000
57.44000 552.000
57.65000 507.000
57.86000 455.000
58.07000 465.000
58.28000 440.000
58.49000 446.000
58.70000 412.000
58.91000 448.000
59.12000 454.000
59.33000 407.000
59.54000 428.000
59.75000 410.000
59.96000 391.000
60.17000 406.000
60.38000 407.000
60.59000 422.000
60.80000 424.000
61.01000 388.000
61.22000 376.000
61.43000 388.000
61.64000 373.000
61.85000 377.000
61.98500 380.000