File: ISoD/xrd_data/HSC010_range_1.xy
2.00000;569.000
2.21000;450.000
2.42000;363.000
2.63000;305.000
2.84000;249.000
3.05000;225.000
3.26000;220.000
3.47000;228.000
3.68000;206.000
3.89000;182.000
4.10000;204.000
4.31000;197.000
4.52000;193.000
4.73000;179.000
4.94000;187.000
5.15000;195.000
5.36000;159.000
5.57000;179.000
5.78000;176.000
5.99000;234.000
6.20000;302.000
6.41000;188.000
6.62000;195.000
6.83000;180.000
7.04000;182.000
7.25000;168.000
7.46000;174.000
7.67000;190.000
7.88000;182.000
8.09000;198.000
8.30000;179.000
8.51000;183.000
8.72000;185.000
8.93000;181.000
9.14000;184.000
9.35000;181.000
9.56000;175.000
9.77000;172.000
9.98000;180.000
10.19000;178.000
10.40000;187.000
10.61000;193.000
10.82000;193.000
11.03000;214.000
11.24000;194.000
11.45000;196.000
11.66000;211.000
11.87000;215.000
12.08000;309.000
12.29000;1181.000
12.50000;294.000
12.71000;233.000
12.92000;257.000
13.13000;246.000
13.34000;311.000
13.55000;277.000
13.76000;226.000
13.97000;237.000
14.18000;213.000
14.39000;207.000
14.60000;227.000
14.81000;207.000
15.02000;213.000
15.23000;193.000
15.44000;195.000
15.65000;222.000
15.86000;227.000
16.07000;201.000
16.28000;218.000
16.49000;259.000
16.70000;204.000
16.91000;223.000
17.12000;222.000
17.33000;209.000
17.54000;204.000
17.75000;221.000
17.96000;237.000
18.17000;239.000
18.38000;238.000
18.59000;238.000
18.80000;261.000
19.01000;228.000
19.22000;237.000
19.43000;315.000
19.64000;294.000
19.85000;248.000
20.06000;257.000
20.27000;263.000
20.48000;242.000
20.69000;265.000
20.90000;264.000
21.11000;269.000
21.32000;251.000
21.53000;291.000
21.74000;270.000
21.95000;265.000
22.16000;276.000
22.37000;301.000
22.58000;269.000
22.79000;242.000
23.00000;255.000
23.21000;271.000
23.42000;284.000
23.63000;300.000
23.84000;285.000
24.05000;256.000
24.26000;274.000
24.47000;278.000
24.68000;289.000
24.89000;307.000
25.10000;285.000
25.31000;328.000
25.52000;327.000
25.73000;431.000
25.94000;382.000
26.15000;400.000
26.36000;514.000
26.57000;460.000
26.78000;556.000
26.99000;599.000
27.20000;727.000
27.41000;700.000
27.62000;717.000
27.83000;845.000
28.04000;510.000
28.25000;379.000
28.46000;319.000
28.67000;302.000
28.88000;272.000
29.09000;261.000
29.30000;263.000
29.51000;233.000
29.72000;220.000
29.93000;248.000
30.14000;239.000
30.35000;236.000
30.56000;228.000
30.77000;245.000
30.98000;235.000
31.19000;245.000
31.40000;205.000
31.61000;219.000
31.82000;187.000
32.03000;190.000
32.24000;166.000
32.45000;176.000
32.66000;181.000
32.87000;170.000
33.08000;188.000
33.29000;162.000
33.50000;150.000
33.71000;173.000
33.92000;181.000
34.13000;164.000
34.34000;157.000
34.55000;158.000
34.76000;150.000
34.97000;172.000
35.18000;150.000
35.39000;134.000
35.60000;135.000
35.81000;149.000
36.02000;121.000
36.23000;134.000
36.44000;128.000
36.65000;103.000
36.86000;115.000
37.07000;129.000
37.28000;120.000
37.49000;120.000
37.70000;121.000
37.91000;117.000
38.12000;125.000
38.33000;111.000
38.54000;136.000
38.75000;115.000
38.96000;111.000
39.17000;119.000
39.38000;117.000
39.59000;105.000
39.80000;121.000
40.01000;119.000
40.22000;133.000
40.43000;124.000
40.64000;123.000
40.85000;128.000
41.06000;129.000
41.27000;121.000
41.48000;123.000
41.69000;116.000
41.90000;107.000
42.11000;112.000
42.32000;123.000
42.53000;117.000
42.74000;139.000
42.95000;109.000
43.16000;113.000
43.37000;121.000
43.58000;96.000
43.79000;117.000
44.00000;123.000
44.21000;134.000
44.42000;118.000
44.63000;113.000
44.84000;113.000
45.05000;143.000
45.26000;116.000
45.47000;126.000
45.68000;104.000
45.89000;123.000
46.10000;102.000
46.31000;101.000
46.52000;97.000
46.73000;116.000
46.94000;109.000
47.15000;121.000
47.36000;117.000
47.57000;98.000
47.78000;111.000
47.99000;95.000
48.20000;92.000
48.41000;97.000
48.62000;85.000
48.83000;98.000
49.04000;90.000
49.25000;101.000
49.46000;115.000
49.67000;103.000
49.88000;93.000
50.09000;94.000
50.30000;114.000
50.51000;101.000
50.72000;98.000
50.93000;92.000
51.14000;81.000
51.35000;86.000
51.56000;87.000
51.77000;87.000
51.98000;85.000
52.19000;90.000
52.40000;81.000
52.61000;102.000
52.82000;103.000
53.03000;111.000
53.24000;107.000
53.45000;88.000
53.66000;97.000
53.87000;101.000
54.08000;89.000
54.29000;87.000
54.50000;104.000
54.71000;109.000
54.92000;92.000
55.13000;97.000
55.34000;96.000
55.55000;101.000
55.76000;92.000
55.97000;87.000
56.18000;100.000
56.39000;102.000
56.60000;98.000
56.81000;100.000
57.02000;100.000
57.23000;85.000
57.44000;89.000
57.65000;90.000
57.86000;98.000
58.07000;79.000
58.28000;88.000
58.49000;84.000
58.70000;71.000
58.91000;89.000
59.12000;73.000
59.33000;70.000
59.54000;89.000
59.75000;62.000
59.96000;81.000
60.17000;79.000
60.38000;72.000
60.59000;89.000
60.80000;82.000
61.01000;88.000
61.22000;72.000
61.43000;88.000
61.64000;90.000
61.85000;83.000
61.98500;81.000