File: ISoD/xrd_data/HSC079.xy
2.00000 6.000
2.21000 4.000
2.42000 0.000
2.63000 1.000
2.84000 1.000
3.05000 4.000
3.26000 55.000
3.47000 164.000
3.68000 177.000
3.89000 165.000
4.10000 185.000
4.31000 209.000
4.52000 214.000
4.73000 201.000
4.94000 215.000
5.15000 231.000
5.36000 216.000
5.57000 223.000
5.78000 219.000
5.99000 257.000
6.20000 237.000
6.41000 245.000
6.62000 267.000
6.83000 282.000
7.04000 259.000
7.25000 269.000
7.46000 283.000
7.67000 285.000
7.88000 289.000
8.09000 288.000
8.30000 280.000
8.51000 312.000
8.72000 285.000
8.93000 300.000
9.14000 294.000
9.35000 308.000
9.56000 318.000
9.77000 284.000
9.98000 342.000
10.19000 325.000
10.40000 296.000
10.61000 310.000
10.82000 296.000
11.03000 337.000
11.24000 283.000
11.45000 318.000
11.66000 354.000
11.87000 307.000
12.08000 299.000
12.29000 309.000
12.50000 322.000
12.71000 312.000
12.92000 334.000
13.13000 303.000
13.34000 339.000
13.55000 354.000
13.76000 344.000
13.97000 326.000
14.18000 346.000
14.39000 319.000
14.60000 343.000
14.81000 360.000
15.02000 340.000
15.23000 353.000
15.44000 381.000
15.65000 360.000
15.86000 409.000
16.07000 326.000
16.28000 368.000
16.49000 345.000
16.70000 399.000
16.91000 368.000
17.12000 349.000
17.33000 355.000
17.54000 384.000
17.75000 376.000
17.96000 378.000
18.17000 313.000
18.38000 372.000
18.59000 339.000
18.80000 365.000
19.01000 372.000
19.22000 374.000
19.43000 342.000
19.64000 373.000
19.85000 369.000
20.06000 361.000
20.27000 362.000
20.48000 373.000
20.69000 374.000
20.90000 353.000
21.11000 384.000
21.32000 392.000
21.53000 362.000
21.74000 390.000
21.95000 372.000
22.16000 358.000
22.37000 378.000
22.58000 356.000
22.79000 407.000
23.00000 388.000
23.21000 368.000
23.42000 370.000
23.63000 375.000
23.84000 367.000
24.05000 369.000
24.26000 342.000
24.47000 370.000
24.68000 376.000
24.89000 359.000
25.10000 362.000
25.31000 336.000
25.52000 350.000
25.73000 354.000
25.94000 412.000
26.15000 388.000
26.36000 394.000
26.57000 397.000
26.78000 400.000
26.99000 400.000
27.20000 388.000
27.41000 528.000
27.62000 894.000
27.83000 2968.000
28.04000 875.000
28.25000 507.000
28.46000 466.000
28.67000 405.000
28.88000 378.000
29.09000 363.000
29.30000 395.000
29.51000 411.000
29.72000 352.000
29.93000 342.000
30.14000 354.000
30.35000 325.000
30.56000 338.000
30.77000 324.000
30.98000 304.000
31.19000 293.000
31.40000 285.000
31.61000 298.000
31.82000 277.000
32.03000 279.000
32.24000 270.000
32.45000 274.000
32.66000 262.000
32.87000 267.000
33.08000 247.000
33.29000 250.000
33.50000 240.000
33.71000 239.000
33.92000 236.000
34.13000 229.000
34.34000 248.000
34.55000 220.000
34.76000 228.000
34.97000 222.000
35.18000 219.000
35.39000 231.000
35.60000 222.000
35.81000 228.000
36.02000 212.000
36.23000 196.000
36.44000 210.000
36.65000 197.000
36.86000 217.000
37.07000 213.000
37.28000 190.000
37.49000 190.000
37.70000 185.000
37.91000 170.000
38.12000 196.000
38.33000 167.000
38.54000 178.000
38.75000 202.000
38.96000 192.000
39.17000 193.000
39.38000 186.000
39.59000 183.000
39.80000 198.000
40.01000 158.000
40.22000 183.000
40.43000 180.000
40.64000 172.000
40.85000 159.000
41.06000 174.000
41.27000 186.000
41.48000 187.000
41.69000 168.000
41.90000 171.000
42.11000 166.000
42.32000 175.000
42.53000 174.000
42.74000 176.000
42.95000 178.000
43.16000 178.000
43.37000 165.000
43.58000 171.000
43.79000 148.000
44.00000 163.000
44.21000 169.000
44.42000 186.000
44.63000 164.000
44.84000 153.000
45.05000 145.000
45.26000 147.000
45.47000 152.000
45.68000 153.000
45.89000 171.000
46.10000 154.000
46.31000 147.000
46.52000 135.000
46.73000 161.000
46.94000 139.000
47.15000 151.000
47.36000 160.000
47.57000 143.000
47.78000 150.000
47.99000 120.000
48.20000 132.000
48.41000 131.000
48.62000 137.000
48.83000 135.000
49.04000 143.000
49.25000 157.000
49.46000 139.000
49.67000 134.000
49.88000 137.000
50.09000 125.000
50.30000 140.000
50.51000 136.000
50.72000 135.000
50.93000 127.000
51.14000 141.000
51.35000 152.000
51.56000 147.000
51.77000 122.000
51.98000 123.000
52.19000 118.000
52.40000 131.000
52.61000 120.000
52.82000 134.000
53.03000 121.000
53.24000 112.000
53.45000 115.000
53.66000 120.000
53.87000 122.000
54.08000 126.000
54.29000 123.000
54.50000 121.000
54.71000 127.000
54.92000 98.000
55.13000 110.000
55.34000 133.000
55.55000 124.000
55.76000 118.000
55.97000 124.000
56.18000 126.000
56.39000 109.000
56.60000 114.000
56.81000 128.000
57.02000 135.000
57.23000 132.000
57.44000 163.000
57.65000 146.000
57.86000 130.000
58.07000 134.000
58.28000 120.000
58.49000 107.000
58.70000 116.000
58.91000 121.000
59.12000 125.000
59.33000 117.000
59.54000 106.000
59.75000 118.000
59.96000 119.000
60.17000 121.000
60.38000 122.000
60.59000 118.000
60.80000 102.000
61.01000 139.000
61.22000 121.000
61.43000 125.000
61.64000 107.000
61.85000 116.000
61.98500 118.000