File: ISoD/xrd_data/HSC072_range_1.xy
2.00000 2.000
2.21000 2.000
2.42000 3.000
2.63000 2.000
2.84000 3.000
3.05000 2.000
3.26000 151.000
3.47000 248.000
3.68000 299.000
3.89000 278.000
4.10000 262.000
4.31000 273.000
4.52000 258.000
4.73000 275.000
4.94000 269.000
5.15000 306.000
5.36000 300.000
5.57000 322.000
5.78000 273.000
5.99000 337.000
6.20000 317.000
6.41000 302.000
6.62000 358.000
6.83000 325.000
7.04000 336.000
7.25000 359.000
7.46000 323.000
7.67000 355.000
7.88000 338.000
8.09000 361.000
8.30000 359.000
8.51000 338.000
8.72000 376.000
8.93000 378.000
9.14000 339.000
9.35000 350.000
9.56000 359.000
9.77000 362.000
9.98000 348.000
10.19000 384.000
10.40000 387.000
10.61000 381.000
10.82000 382.000
11.03000 353.000
11.24000 367.000
11.45000 356.000
11.66000 356.000
11.87000 374.000
12.08000 361.000
12.29000 383.000
12.50000 381.000
12.71000 382.000
12.92000 371.000
13.13000 356.000
13.34000 399.000
13.55000 381.000
13.76000 370.000
13.97000 373.000
14.18000 369.000
14.39000 361.000
14.60000 367.000
14.81000 388.000
15.02000 384.000
15.23000 373.000
15.44000 382.000
15.65000 398.000
15.86000 379.000
16.07000 372.000
16.28000 390.000
16.49000 344.000
16.70000 344.000
16.91000 355.000
17.12000 398.000
17.33000 371.000
17.54000 415.000
17.75000 385.000
17.96000 395.000
18.17000 400.000
18.38000 389.000
18.59000 421.000
18.80000 390.000
19.01000 425.000
19.22000 407.000
19.43000 411.000
19.64000 384.000
19.85000 393.000
20.06000 414.000
20.27000 399.000
20.48000 413.000
20.69000 426.000
20.90000 410.000
21.11000 399.000
21.32000 410.000
21.53000 435.000
21.74000 419.000
21.95000 401.000
22.16000 437.000
22.37000 403.000
22.58000 412.000
22.79000 414.000
23.00000 403.000
23.21000 404.000
23.42000 407.000
23.63000 398.000
23.84000 383.000
24.05000 396.000
24.26000 403.000
24.47000 403.000
24.68000 414.000
24.89000 448.000
25.10000 387.000
25.31000 420.000
25.52000 413.000
25.73000 416.000
25.94000 451.000
26.15000 404.000
26.36000 412.000
26.57000 421.000
26.78000 420.000
26.99000 428.000
27.20000 414.000
27.41000 465.000
27.62000 469.000
27.83000 452.000
28.04000 452.000
28.25000 444.000
28.46000 400.000
28.67000 401.000
28.88000 337.000
29.09000 376.000
29.30000 356.000
29.51000 353.000
29.72000 342.000
29.93000 339.000
30.14000 363.000
30.35000 304.000
30.56000 290.000
30.77000 315.000
30.98000 295.000
31.19000 309.000
31.40000 309.000
31.61000 304.000
31.82000 281.000
32.03000 278.000
32.24000 262.000
32.45000 262.000
32.66000 257.000
32.87000 263.000
33.08000 273.000
33.29000 242.000
33.50000 244.000
33.71000 246.000
33.92000 225.000
34.13000 239.000
34.34000 250.000
34.55000 223.000
34.76000 214.000
34.97000 216.000
35.18000 217.000
35.39000 208.000
35.60000 224.000
35.81000 223.000
36.02000 197.000
36.23000 211.000
36.44000 194.000
36.65000 194.000
36.86000 221.000
37.07000 216.000
37.28000 180.000
37.49000 179.000
37.70000 161.000
37.91000 167.000
38.12000 172.000
38.33000 170.000
38.54000 177.000
38.75000 159.000
38.96000 174.000
39.17000 175.000
39.38000 178.000
39.59000 174.000
39.80000 172.000
40.01000 157.000
40.22000 167.000
40.43000 161.000
40.64000 159.000
40.85000 162.000
41.06000 167.000
41.27000 146.000
41.48000 167.000
41.69000 149.000
41.90000 158.000
42.11000 162.000
42.32000 161.000
42.53000 157.000
42.74000 163.000
42.95000 165.000
43.16000 167.000
43.37000 161.000
43.58000 144.000
43.79000 151.000
44.00000 137.000
44.21000 141.000
44.42000 141.000
44.63000 137.000
44.84000 140.000
45.05000 155.000
45.26000 152.000
45.47000 130.000
45.68000 168.000
45.89000 137.000
46.10000 139.000
46.31000 140.000
46.52000 150.000
46.73000 139.000
46.94000 142.000
47.15000 157.000
47.36000 123.000
47.57000 145.000
47.78000 131.000
47.99000 120.000
48.20000 133.000
48.41000 133.000
48.62000 135.000
48.83000 122.000
49.04000 122.000
49.25000 109.000
49.46000 133.000
49.67000 134.000
49.88000 125.000
50.09000 134.000
50.30000 126.000
50.51000 121.000
50.72000 124.000
50.93000 126.000
51.14000 113.000
51.35000 122.000
51.56000 146.000
51.77000 131.000
51.98000 112.000
52.19000 132.000
52.40000 123.000
52.61000 130.000
52.82000 119.000
53.03000 117.000
53.24000 120.000
53.45000 102.000
53.66000 121.000
53.87000 111.000
54.08000 117.000
54.29000 106.000
54.50000 111.000
54.71000 108.000
54.92000 100.000
55.13000 105.000
55.34000 113.000
55.55000 116.000
55.76000 127.000
55.97000 109.000
56.18000 118.000
56.39000 104.000
56.60000 105.000
56.81000 110.000
57.02000 114.000
57.23000 115.000
57.44000 116.000
57.65000 111.000
57.86000 106.000
58.07000 128.000
58.28000 115.000
58.49000 122.000
58.70000 129.000
58.91000 90.000
59.12000 95.000
59.33000 103.000
59.54000 105.000
59.75000 101.000
59.96000 110.000
60.17000 116.000
60.38000 98.000
60.59000 105.000
60.80000 96.000
61.01000 124.000
61.22000 109.000
61.43000 102.000
61.64000 86.000
61.85000 99.000
61.98500 109.000