File: ISoD/xrd_data/HSC085.xyd
2.00000 2.000
2.21000 4.000
2.42000 2.000
2.63000 1.000
2.84000 4.000
3.05000 20.000
3.26000 110.000
3.47000 126.000
3.68000 142.000
3.89000 144.000
4.10000 176.000
4.31000 167.000
4.52000 178.000
4.73000 211.000
4.94000 198.000
5.15000 245.000
5.36000 227.000
5.57000 231.000
5.78000 228.000
5.99000 238.000
6.20000 255.000
6.41000 255.000
6.62000 257.000
6.83000 281.000
7.04000 277.000
7.25000 294.000
7.46000 262.000
7.67000 276.000
7.88000 304.000
8.09000 252.000
8.30000 271.000
8.51000 301.000
8.72000 290.000
8.93000 296.000
9.14000 285.000
9.35000 296.000
9.56000 288.000
9.77000 295.000
9.98000 270.000
10.19000 292.000
10.40000 302.000
10.61000 278.000
10.82000 284.000
11.03000 315.000
11.24000 305.000
11.45000 295.000
11.66000 311.000
11.87000 331.000
12.08000 1600.000
12.29000 10981.000
12.50000 391.000
12.71000 338.000
12.92000 294.000
13.13000 393.000
13.34000 775.000
13.55000 379.000
13.76000 440.000
13.97000 305.000
14.18000 311.000
14.39000 282.000
14.60000 296.000
14.81000 291.000
15.02000 306.000
15.23000 309.000
15.44000 284.000
15.65000 289.000
15.86000 315.000
16.07000 303.000
16.28000 355.000
16.49000 850.000
16.70000 340.000
16.91000 664.000
17.12000 296.000
17.33000 319.000
17.54000 301.000
17.75000 313.000
17.96000 440.000
18.17000 368.000
18.38000 311.000
18.59000 293.000
18.80000 319.000
19.01000 285.000
19.22000 327.000
19.43000 1503.000
19.64000 1764.000
19.85000 327.000
20.06000 303.000
20.27000 308.000
20.48000 356.000
20.69000 360.000
20.90000 314.000
21.11000 341.000
21.32000 328.000
21.53000 380.000
21.74000 728.000
21.95000 351.000
22.16000 521.000
22.37000 334.000
22.58000 325.000
22.79000 302.000
23.00000 325.000
23.21000 322.000
23.42000 299.000
23.63000 331.000
23.84000 374.000
24.05000 366.000
24.26000 428.000
24.47000 331.000
24.68000 784.000
24.89000 363.000
25.10000 491.000
25.31000 422.000
25.52000 528.000
25.73000 4774.000
25.94000 472.000
26.15000 870.000
26.36000 881.000
26.57000 391.000
26.78000 343.000
26.99000 553.000
27.20000 434.000
27.41000 405.000
27.62000 865.000
27.83000 4264.000
28.04000 406.000
28.25000 336.000
28.46000 381.000
28.67000 296.000
28.88000 305.000
29.09000 297.000
29.30000 276.000
29.51000 299.000
29.72000 319.000
29.93000 344.000
30.14000 1665.000
30.35000 414.000
30.56000 331.000
30.77000 1107.000
30.98000 338.000
31.19000 292.000
31.40000 259.000
31.61000 454.000
31.82000 340.000
32.03000 339.000
32.24000 247.000
32.45000 265.000
32.66000 236.000
32.87000 225.000
33.08000 248.000
33.29000 254.000
33.50000 346.000
33.71000 544.000
33.92000 314.000
34.13000 298.000
34.34000 235.000
34.55000 259.000
34.76000 224.000
34.97000 474.000
35.18000 213.000
35.39000 206.000
35.60000 194.000
35.81000 269.000
36.02000 196.000
36.23000 168.000
36.44000 176.000
36.65000 180.000
36.86000 185.000
37.07000 432.000
37.28000 187.000
37.49000 161.000
37.70000 163.000
37.91000 162.000
38.12000 164.000
38.33000 451.000
38.54000 212.000
38.75000 151.000
38.96000 164.000
39.17000 149.000
39.38000 159.000
39.59000 206.000
39.80000 185.000
40.01000 197.000
40.22000 176.000
40.43000 187.000
40.64000 296.000
40.85000 217.000
41.06000 302.000
41.27000 394.000
41.48000 155.000
41.69000 212.000
41.90000 205.000
42.11000 367.000
42.32000 176.000
42.53000 199.000
42.74000 191.000
42.95000 147.000
43.16000 156.000
43.37000 160.000
43.58000 156.000
43.79000 167.000
44.00000 233.000
44.21000 361.000
44.42000 194.000
44.63000 244.000
44.84000 179.000
45.05000 265.000
45.26000 155.000
45.47000 141.000
45.68000 154.000
45.89000 132.000
46.10000 152.000
46.31000 212.000
46.52000 156.000
46.73000 200.000
46.94000 312.000
47.15000 237.000
47.36000 186.000
47.57000 183.000
47.78000 166.000
47.99000 152.000
48.20000 133.000
48.41000 146.000
48.62000 150.000
48.83000 155.000
49.04000 236.000
49.25000 154.000
49.46000 148.000
49.67000 402.000
49.88000 138.000
50.09000 170.000
50.30000 261.000
50.51000 264.000
50.72000 167.000
50.93000 133.000
51.14000 143.000
51.35000 177.000
51.56000 157.000
51.77000 185.000
51.98000 162.000
52.19000 180.000
52.40000 128.000
52.61000 123.000
52.82000 139.000
53.03000 172.000
53.24000 138.000
53.45000 275.000
53.66000 139.000
53.87000 147.000
54.08000 291.000
54.29000 140.000
54.50000 163.000
54.71000 158.000
54.92000 244.000
55.13000 392.000
55.34000 184.000
55.55000 181.000
55.76000 145.000
55.97000 125.000
56.18000 126.000
56.39000 123.000
56.60000 169.000
56.81000 198.000
57.02000 171.000
57.23000 192.000
57.44000 252.000
57.65000 128.000
57.86000 132.000
58.07000 140.000
58.28000 159.000
58.49000 125.000
58.70000 113.000
58.91000 130.000
59.12000 139.000
59.33000 126.000
59.54000 124.000
59.75000 144.000
59.96000 237.000
60.17000 166.000
60.38000 200.000
60.59000 165.000
60.80000 125.000
61.01000 152.000
61.22000 126.000
61.43000 122.000
61.64000 124.000
61.85000 109.000
61.98500 128.000