File: ISoD/xrd_data/HSC010_ranges_combined.xyd
2.000 569.0
2.210 450.0
2.420 363.0
2.630 305.0
2.840 249.0
3.050 225.0
3.260 220.0
3.470 228.0
3.680 206.0
3.890 182.0
4.100 204.0
4.310 197.0
4.520 193.0
4.730 179.0
4.940 187.0
5.150 195.0
5.360 159.0
5.570 179.0
5.780 176.0
5.990 234.0
6.200 302.0
6.410 188.0
6.620 195.0
6.830 180.0
7.040 182.0
7.250 168.0
7.460 174.0
7.670 190.0
7.880 182.0
8.090 198.0
8.300 179.0
8.510 183.0
8.720 185.0
8.930 181.0
9.140 184.0
9.350 181.0
9.560 175.0
9.770 172.0
9.980 180.0
10.190 178.0
10.400 187.0
10.610 193.0
10.820 193.0
11.030 214.0
11.240 194.0
11.450 196.0
11.660 211.0
11.870 215.0
12.080 309.0
"12.290     1181"
12.500 294.0
12.710 233.0
12.920 257.0
13.130 246.0
13.340 311.0
13.550 277.0
13.760 226.0
13.970 237.0
14.180 213.0
14.390 207.0
14.600 227.0
14.810 207.0
15.020 213.0
15.230 193.0
15.440 195.0
15.650 222.0
15.860 227.0
16.070 201.0
16.280 218.0
16.490 259.0
16.700 204.0
16.910 223.0
17.120 222.0
17.330 209.0
17.540 204.0
17.750 221.0
17.960 237.0
18.170 239.0
18.380 238.0
18.590 238.0
18.800 261.0
19.010 228.0
19.220 237.0
19.430 315.0
19.640 294.0
19.850 248.0
20.060 257.0
20.270 263.0
20.480 242.0
20.690 265.0
20.900 264.0
21.110 269.0
21.320 251.0
21.530 291.0
21.740 270.0
21.950 265.0
22.160 276.0
22.370 301.0
22.580 269.0
22.790 242.0
23.000 255.0
23.210 271.0
23.420 284.0
23.630 300.0
23.840 285.0
24.050 256.0
24.260 274.0
24.470 278.0
24.680 289.0
24.890 307.0
25.100 285.0
25.310 328.0
25.520 327.0
25.730 431.0
25.940 382.0
26.150 400.0
26.360 514.0
26.570 460.0
26.780 556.0
26.990 599.0
27.200 727.0
27.410 700.0
27.620 717.0
27.830 845.0
28.040 510.0
28.250 379.0
28.460 319.0
28.670 302.0
28.880 272.0
29.090 261.0
29.300 263.0
29.510 233.0
29.720 220.0
29.930 248.0
30.140 239.0
30.350 236.0
30.560 228.0
30.770 245.0
30.980 235.0
31.190 245.0
31.400 205.0
31.610 219.0
31.820 187.0
32.030 190.0
32.240 166.0
32.450 176.0
32.660 181.0
32.870 170.0
33.080 188.0
33.290 162.0
33.500 150.0
33.710 173.0
33.920 181.0
34.130 164.0
34.340 157.0
34.550 158.0
34.760 150.0
34.970 172.0
35.180 150.0
35.390 134.0
35.600 135.0
35.810 149.0
36.020 121.0
36.230 134.0
36.440 128.0
36.650 103.0
36.860 115.0
37.070 129.0
37.280 120.0
37.490 120.0
37.700 121.0
37.910 117.0
38.120 125.0
38.330 111.0
38.540 136.0
38.750 115.0
38.960 111.0
39.170 119.0
39.380 117.0
39.590 105.0
39.800 121.0
40.010 119.0
40.220 133.0
40.430 124.0
40.640 123.0
40.850 128.0
41.060 129.0
41.270 121.0
41.480 123.0
41.690 116.0
41.900 107.0
42.110 112.0
42.320 123.0
42.530 117.0
42.740 139.0
42.950 109.0
43.160 113.0
43.370 121.0
43.580 96.0
43.790 117.0
44.000 123.0
44.210 134.0
44.420 118.0
44.630 113.0
44.840 113.0
45.050 143.0
45.260 116.0
45.470 126.0
45.680 104.0
45.890 123.0
46.100 102.0
46.310 101.0
46.520 97.0
46.730 116.0
46.940 109.0
47.150 121.0
47.360 117.0
47.570 98.0
47.780 111.0
47.990 95.0
48.200 92.0
48.410 97.0
48.620 85.0
48.830 98.0
49.040 90.0
49.250 101.0
49.460 115.0
49.670 103.0
49.880 93.0
50.090 94.0
50.300 114.0
50.510 101.0
50.720 98.0
50.930 92.0
51.140 81.0
51.350 86.0
51.560 87.0
51.770 87.0
51.980 85.0
52.190 90.0
52.400 81.0
52.610 102.0
52.820 103.0
53.030 111.0
53.240 107.0
53.450 88.0
53.660 97.0
53.870 101.0
54.080 89.0
54.290 87.0
54.500 104.0
54.710 109.0
54.920 92.0
55.130 97.0
55.340 96.0
55.550 101.0
55.760 92.0
55.970 87.0
56.180 100.0
56.390 102.0
56.600 98.0
56.810 100.0
57.020 100.0
57.230 85.0
57.440 89.0
57.650 90.0
57.860 98.0
58.070 79.0
58.280 88.0
58.490 84.0
58.700 71.0
58.910 89.0
59.120 73.0
59.330 70.0
59.540 89.0
59.750 62.0
59.960 81.0
60.170 79.0
60.380 72.0
60.590 89.0
60.800 82.0
61.010 88.0
61.220 72.0
61.430 88.0
61.640 90.0
61.850 83.0
61.985 81.0