File: ISoD/xrd_data/HSC094_gew_range_2.xy
2.00000 2.000
2.21000 4.000
2.42000 4.000
2.63000 1.000
2.84000 6.000
3.05000 15.000
3.26000 229.000
3.47000 224.000
3.68000 191.000
3.89000 190.000
4.10000 172.000
4.31000 185.000
4.52000 174.000
4.73000 174.000
4.94000 181.000
5.15000 162.000
5.36000 188.000
5.57000 166.000
5.78000 192.000
5.99000 185.000
6.20000 181.000
6.41000 194.000
6.62000 178.000
6.83000 165.000
7.04000 200.000
7.25000 177.000
7.46000 213.000
7.67000 215.000
7.88000 220.000
8.09000 191.000
8.30000 219.000
8.51000 261.000
8.72000 308.000
8.93000 1448.000
9.14000 337.000
9.35000 243.000
9.56000 228.000
9.77000 203.000
9.98000 225.000
10.19000 252.000
10.40000 622.000
10.61000 993.000
10.82000 340.000
11.03000 226.000
11.24000 255.000
11.45000 461.000
11.66000 4130.000
11.87000 483.000
12.08000 284.000
12.29000 274.000
12.50000 252.000
12.71000 248.000
12.92000 802.000
13.13000 421.000
13.34000 1027.000
13.55000 213.000
13.76000 203.000
13.97000 326.000
14.18000 222.000
14.39000 205.000
14.60000 228.000
14.81000 385.000
15.02000 2771.000
15.23000 231.000
15.44000 295.000
15.65000 280.000
15.86000 261.000
16.07000 909.000
16.28000 261.000
16.49000 340.000
16.70000 1286.000
16.91000 246.000
17.12000 212.000
17.33000 222.000
17.54000 224.000
17.75000 248.000
17.96000 518.000
18.17000 751.000
18.38000 270.000
18.59000 228.000
18.80000 242.000
19.01000 222.000
19.22000 243.000
19.43000 265.000
19.64000 2009.000
19.85000 222.000
20.06000 253.000
20.27000 531.000
20.48000 247.000
20.69000 456.000
20.90000 302.000
21.11000 930.000
21.32000 570.000
21.53000 3139.000
21.74000 876.000
21.95000 397.000
22.16000 324.000
22.37000 460.000
22.58000 358.000
22.79000 417.000
23.00000 271.000
23.21000 260.000
23.42000 437.000
23.63000 257.000
23.84000 252.000
24.05000 229.000
24.26000 244.000
24.47000 238.000
24.68000 244.000
24.89000 247.000
25.10000 229.000
25.31000 243.000
25.52000 241.000
25.73000 246.000
25.94000 232.000
26.15000 481.000
26.36000 252.000
26.57000 298.000
26.78000 687.000
26.99000 460.000
27.20000 581.000
27.41000 341.000
27.62000 1465.000
27.83000 482.000
28.04000 445.000
28.25000 238.000
28.46000 387.000
28.67000 543.000
28.88000 382.000
29.09000 411.000
29.30000 252.000
29.51000 247.000
29.72000 230.000
29.93000 256.000
30.14000 449.000
30.35000 2141.000
30.56000 353.000
30.77000 246.000
30.98000 235.000
31.19000 304.000
31.40000 302.000
31.61000 640.000
31.82000 2682.000
32.03000 510.000
32.24000 309.000
32.45000 763.000
32.66000 520.000
32.87000 251.000
33.08000 215.000
33.29000 291.000
33.50000 406.000
33.71000 324.000
33.92000 192.000
34.13000 185.000
34.34000 196.000
34.55000 171.000
34.76000 185.000
34.97000 232.000
35.18000 292.000
35.39000 355.000
35.60000 670.000
35.81000 219.000
36.02000 272.000
36.23000 899.000
36.44000 252.000
36.65000 334.000
36.86000 291.000
37.07000 246.000
37.28000 298.000
37.49000 987.000
37.70000 523.000
37.91000 193.000
38.12000 165.000
38.33000 205.000
38.54000 260.000
38.75000 148.000
38.96000 155.000
39.17000 188.000
39.38000 207.000
39.59000 188.000
39.80000 374.000
40.01000 243.000
40.22000 171.000
40.43000 233.000
40.64000 227.000
40.85000 537.000
41.06000 260.000
41.27000 287.000
41.48000 209.000
41.69000 245.000
41.90000 538.000
42.11000 285.000
42.32000 296.000
42.53000 247.000
42.74000 627.000
42.95000 377.000
43.16000 299.000
43.37000 583.000
43.58000 382.000
43.79000 232.000
44.00000 394.000
44.21000 306.000
44.42000 178.000
44.63000 443.000
44.84000 367.000
45.05000 183.000
45.26000 238.000
45.47000 872.000
45.68000 396.000
45.89000 294.000
46.10000 239.000
46.31000 247.000
46.52000 260.000
46.73000 552.000
46.94000 461.000
47.15000 239.000
47.36000 192.000
47.57000 681.000
47.78000 204.000
47.99000 486.000
48.20000 390.000
48.41000 368.000
48.62000 380.000
48.83000 325.000
49.04000 244.000
49.25000 273.000
49.46000 167.000
49.67000 180.000
49.88000 384.000
50.09000 300.000
50.30000 214.000
50.51000 218.000
50.72000 312.000
50.93000 516.000
51.14000 207.000
51.35000 167.000
51.56000 190.000
51.77000 245.000
51.98000 221.000
52.19000 164.000
52.40000 158.000
52.61000 199.000
52.82000 436.000
53.03000 245.000
53.24000 231.000
53.45000 191.000
53.66000 148.000
53.87000 155.000
54.08000 146.000
54.29000 201.000
54.50000 280.000
54.71000 383.000
54.92000 380.000
55.13000 317.000
55.34000 503.000
55.55000 311.000
55.76000 201.000
55.97000 210.000
56.18000 279.000
56.39000 252.000
56.60000 290.000
56.81000 315.000
57.02000 243.000
57.23000 247.000
57.44000 204.000
57.65000 208.000
57.86000 196.000
58.07000 299.000
58.28000 253.000
58.49000 203.000
58.70000 215.000
58.91000 218.000
59.12000 162.000
59.33000 186.000
59.54000 257.000
59.75000 242.000
59.96000 287.000
60.17000 458.000
60.38000 231.000
60.59000 185.000
60.80000 153.000
61.01000 277.000
61.22000 238.000
61.43000 273.000
61.64000 184.000
61.85000 161.000
61.98500 261.000