File: ISoD/xrd_data/HSC018.xy
2.00000 3.000
2.21000 1.000
2.42000 0.000
2.63000 64.000
2.84000 83.000
3.05000 84.000
3.26000 94.000
3.47000 80.000
3.68000 101.000
3.89000 84.000
4.10000 109.000
4.31000 96.000
4.52000 96.000
4.73000 87.000
4.94000 110.000
5.15000 102.000
5.36000 112.000
5.57000 93.000
5.78000 102.000
5.99000 109.000
6.20000 111.000
6.41000 126.000
6.62000 124.000
6.83000 108.000
7.04000 132.000
7.25000 115.000
7.46000 110.000
7.67000 138.000
7.88000 125.000
8.09000 105.000
8.30000 120.000
8.51000 136.000
8.72000 149.000
8.93000 129.000
9.14000 124.000
9.35000 124.000
9.56000 123.000
9.77000 119.000
9.98000 197.000
10.19000 158.000
10.40000 148.000
10.61000 160.000
10.82000 130.000
11.03000 119.000
11.24000 131.000
11.45000 105.000
11.66000 118.000
11.87000 135.000
12.08000 174.000
12.29000 148.000
12.50000 132.000
12.71000 124.000
12.92000 116.000
13.13000 153.000
13.34000 291.000
13.55000 173.000
13.76000 123.000
13.97000 137.000
14.18000 131.000
14.39000 128.000
14.60000 135.000
14.81000 134.000
15.02000 136.000
15.23000 119.000
15.44000 145.000
15.65000 126.000
15.86000 174.000
16.07000 138.000
16.28000 120.000
16.49000 151.000
16.70000 135.000
16.91000 149.000
17.12000 132.000
17.33000 139.000
17.54000 142.000
17.75000 412.000
17.96000 240.000
18.17000 193.000
18.38000 160.000
18.59000 130.000
18.80000 136.000
19.01000 155.000
19.22000 142.000
19.43000 128.000
19.64000 138.000
19.85000 154.000
20.06000 194.000
20.27000 135.000
20.48000 132.000
20.69000 274.000
20.90000 143.000
21.11000 169.000
21.32000 156.000
21.53000 148.000
21.74000 299.000
21.95000 345.000
22.16000 181.000
22.37000 167.000
22.58000 169.000
22.79000 155.000
23.00000 172.000
23.21000 242.000
23.42000 159.000
23.63000 620.000
23.84000 180.000
24.05000 201.000
24.26000 763.000
24.47000 199.000
24.68000 179.000
24.89000 281.000
25.10000 266.000
25.31000 171.000
25.52000 443.000
25.73000 420.000
25.94000 176.000
26.15000 157.000
26.36000 291.000
26.57000 1840.000
26.78000 294.000
26.99000 1233.000
27.20000 653.000
27.41000 194.000
27.62000 170.000
27.83000 182.000
28.04000 314.000
28.25000 155.000
28.46000 269.000
28.67000 262.000
28.88000 283.000
29.09000 204.000
29.30000 389.000
29.51000 269.000
29.72000 187.000
29.93000 276.000
30.14000 515.000
30.35000 410.000
30.56000 223.000
30.77000 600.000
30.98000 313.000
31.19000 517.000
31.40000 529.000
31.61000 212.000
31.82000 216.000
32.03000 288.000
32.24000 632.000
32.45000 1707.000
32.66000 239.000
32.87000 518.000
33.08000 170.000
33.29000 134.000
33.50000 198.000
33.71000 367.000
33.92000 416.000
34.13000 220.000
34.34000 322.000
34.55000 495.000
34.76000 156.000
34.97000 245.000
35.18000 159.000
35.39000 145.000
35.60000 138.000
35.81000 163.000
36.02000 155.000
36.23000 187.000
36.44000 220.000
36.65000 124.000
36.86000 163.000
37.07000 1001.000
37.28000 526.000
37.49000 269.000
37.70000 589.000
37.91000 155.000
38.12000 520.000
38.33000 214.000
38.54000 956.000
38.75000 279.000
38.96000 141.000
39.17000 291.000
39.38000 709.000
39.59000 394.000
39.80000 156.000
40.01000 172.000
40.22000 161.000
40.43000 230.000
40.64000 385.000
40.85000 344.000
41.06000 245.000
41.27000 185.000
41.48000 594.000
41.69000 156.000
41.90000 137.000
42.11000 203.000
42.32000 158.000
42.53000 133.000
42.74000 198.000
42.95000 167.000
43.16000 346.000
43.37000 106.000
43.58000 124.000
43.79000 112.000
44.00000 525.000
44.21000 137.000
44.42000 397.000
44.63000 133.000
44.84000 170.000
45.05000 472.000
45.26000 271.000
45.47000 132.000
45.68000 149.000
45.89000 186.000
46.10000 224.000
46.31000 158.000
46.52000 239.000
46.73000 118.000
46.94000 148.000
47.15000 140.000
47.36000 152.000
47.57000 631.000
47.78000 100.000
47.99000 174.000
48.20000 96.000
48.41000 126.000
48.62000 211.000
48.83000 207.000
49.04000 119.000
49.25000 124.000
49.46000 130.000
49.67000 119.000
49.88000 169.000
50.09000 116.000
50.30000 131.000
50.51000 139.000
50.72000 157.000
50.93000 264.000
51.14000 172.000
51.35000 579.000
51.56000 311.000
51.77000 173.000
51.98000 132.000
52.19000 171.000
52.40000 129.000
52.61000 122.000
52.82000 151.000
53.03000 164.000
53.24000 148.000
53.45000 202.000
53.66000 169.000
53.87000 137.000
54.08000 125.000
54.29000 215.000
54.50000 120.000
54.71000 148.000
54.92000 164.000
55.13000 110.000
55.34000 159.000
55.55000 121.000
55.76000 149.000
55.97000 166.000
56.18000 125.000
56.39000 103.000
56.60000 172.000
56.81000 180.000
57.02000 151.000
57.23000 127.000
57.44000 191.000
57.65000 142.000
57.86000 129.000
58.07000 127.000
58.28000 150.000
58.49000 113.000
58.70000 172.000
58.91000 133.000
59.12000 123.000
59.33000 103.000
59.54000 108.000
59.75000 144.000
59.96000 122.000
60.17000 152.000
60.38000 140.000
60.59000 162.000
60.80000 137.000
61.01000 131.000
61.22000 132.000
61.43000 152.000
61.64000 125.000
61.85000 131.000
61.98500 139.000