File: ISoD/xrd_data/HSC033.xy
2.00000 4.000
2.21000 1.000
2.42000 2.000
2.63000 2.000
2.84000 4.000
3.05000 182.000
3.26000 385.000
3.47000 360.000
3.68000 330.000
3.89000 316.000
4.10000 291.000
4.31000 310.000
4.52000 300.000
4.73000 287.000
4.94000 321.000
5.15000 289.000
5.36000 303.000
5.57000 301.000
5.78000 304.000
5.99000 287.000
6.20000 300.000
6.41000 303.000
6.62000 296.000
6.83000 306.000
7.04000 284.000
7.25000 327.000
7.46000 301.000
7.67000 331.000
7.88000 331.000
8.09000 289.000
8.30000 358.000
8.51000 386.000
8.72000 363.000
8.93000 307.000
9.14000 294.000
9.35000 319.000
9.56000 313.000
9.77000 311.000
9.98000 360.000
10.19000 324.000
10.40000 323.000
10.61000 322.000
10.82000 347.000
11.03000 349.000
11.24000 414.000
11.45000 425.000
11.66000 497.000
11.87000 458.000
12.08000 315.000
12.29000 291.000
12.50000 289.000
12.71000 287.000
12.92000 289.000
13.13000 300.000
13.34000 274.000
13.55000 253.000
13.76000 245.000
13.97000 246.000
14.18000 248.000
14.39000 250.000
14.60000 234.000
14.81000 266.000
15.02000 232.000
15.23000 255.000
15.44000 245.000
15.65000 227.000
15.86000 238.000
16.07000 241.000
16.28000 265.000
16.49000 247.000
16.70000 275.000
16.91000 233.000
17.12000 232.000
17.33000 240.000
17.54000 232.000
17.75000 238.000
17.96000 236.000
18.17000 235.000
18.38000 256.000
18.59000 258.000
18.80000 239.000
19.01000 237.000
19.22000 308.000
19.43000 272.000
19.64000 261.000
19.85000 262.000
20.06000 250.000
20.27000 281.000
20.48000 273.000
20.69000 267.000
20.90000 268.000
21.11000 267.000
21.32000 256.000
21.53000 279.000
21.74000 300.000
21.95000 261.000
22.16000 265.000
22.37000 285.000
22.58000 289.000
22.79000 302.000
23.00000 291.000
23.21000 309.000
23.42000 326.000
23.63000 311.000
23.84000 304.000
24.05000 329.000
24.26000 348.000
24.47000 351.000
24.68000 396.000
24.89000 421.000
25.10000 478.000
25.31000 501.000
25.52000 577.000
25.73000 576.000
25.94000 575.000
26.15000 586.000
26.36000 566.000
26.57000 610.000
26.78000 565.000
26.99000 641.000
27.20000 650.000
27.41000 571.000
27.62000 455.000
27.83000 366.000
28.04000 340.000
28.25000 286.000
28.46000 272.000
28.67000 236.000
28.88000 243.000
29.09000 237.000
29.30000 256.000
29.51000 231.000
29.72000 229.000
29.93000 226.000
30.14000 267.000
30.35000 282.000
30.56000 238.000
30.77000 220.000
30.98000 202.000
31.19000 207.000
31.40000 206.000
31.61000 189.000
31.82000 198.000
32.03000 182.000
32.24000 193.000
32.45000 196.000
32.66000 194.000
32.87000 171.000
33.08000 154.000
33.29000 169.000
33.50000 153.000
33.71000 161.000
33.92000 159.000
34.13000 175.000
34.34000 180.000
34.55000 154.000
34.76000 163.000
34.97000 144.000
35.18000 129.000
35.39000 157.000
35.60000 139.000
35.81000 152.000
36.02000 125.000
36.23000 142.000
36.44000 131.000
36.65000 143.000
36.86000 153.000
37.07000 161.000
37.28000 133.000
37.49000 146.000
37.70000 138.000
37.91000 123.000
38.12000 131.000
38.33000 127.000
38.54000 140.000
38.75000 140.000
38.96000 130.000
39.17000 130.000
39.38000 132.000
39.59000 138.000
39.80000 119.000
40.01000 118.000
40.22000 136.000
40.43000 139.000
40.64000 136.000
40.85000 134.000
41.06000 127.000
41.27000 142.000
41.48000 134.000
41.69000 135.000
41.90000 129.000
42.11000 130.000
42.32000 134.000
42.53000 121.000
42.74000 123.000
42.95000 126.000
43.16000 127.000
43.37000 124.000
43.58000 131.000
43.79000 145.000
44.00000 118.000
44.21000 134.000
44.42000 121.000
44.63000 129.000
44.84000 132.000
45.05000 127.000
45.26000 116.000
45.47000 128.000
45.68000 132.000
45.89000 116.000
46.10000 113.000
46.31000 118.000
46.52000 129.000
46.73000 108.000
46.94000 123.000
47.15000 105.000
47.36000 110.000
47.57000 108.000
47.78000 111.000
47.99000 108.000
48.20000 119.000
48.41000 111.000
48.62000 99.000
48.83000 106.000
49.04000 101.000
49.25000 100.000
49.46000 104.000
49.67000 93.000
49.88000 97.000
50.09000 108.000
50.30000 119.000
50.51000 96.000
50.72000 104.000
50.93000 101.000
51.14000 110.000
51.35000 103.000
51.56000 94.000
51.77000 106.000
51.98000 98.000
52.19000 93.000
52.40000 88.000
52.61000 107.000
52.82000 95.000
53.03000 98.000
53.24000 109.000
53.45000 82.000
53.66000 108.000
53.87000 117.000
54.08000 97.000
54.29000 102.000
54.50000 83.000
54.71000 104.000
54.92000 87.000
55.13000 100.000
55.34000 89.000
55.55000 96.000
55.76000 93.000
55.97000 87.000
56.18000 90.000
56.39000 81.000
56.60000 93.000
56.81000 82.000
57.02000 95.000
57.23000 91.000
57.44000 90.000
57.65000 88.000
57.86000 81.000
58.07000 94.000
58.28000 82.000
58.49000 86.000
58.70000 87.000
58.91000 84.000
59.12000 83.000
59.33000 84.000
59.54000 95.000
59.75000 83.000
59.96000 79.000
60.17000 75.000
60.38000 86.000
60.59000 68.000
60.80000 83.000
61.01000 92.000
61.22000 88.000
61.43000 88.000
61.64000 80.000
61.85000 77.000
61.98500 85.000