File: ISoD/xrd_data/HSC062_Rueck.xy
5.00000 822.000
5.19500 846.000
5.39000 806.000
5.58500 818.000
5.78000 810.000
5.97500 793.000
6.17000 765.000
6.36500 730.000
6.56000 715.000
6.75500 765.000
6.95000 776.000
7.14500 738.000
7.34000 862.000
7.53500 954.000
7.73000 1331.000
7.92500 2055.000
8.12000 2199.000
8.31500 1813.000
8.51000 1620.000
8.70500 1394.000
8.90000 1430.000
9.09500 1339.000
9.29000 1294.000
9.48500 1259.000
9.68000 1170.000
9.87500 1059.000
10.07000 1053.000
10.26500 978.000
10.46000 841.000
10.65500 846.000
10.85000 816.000
11.04500 782.000
11.24000 741.000
11.43500 760.000
11.63000 736.000
11.82500 748.000
12.02000 729.000
12.21500 765.000
12.41000 718.000
12.60500 760.000
12.80000 745.000
12.99500 718.000
13.19000 732.000
13.38500 767.000
13.58000 717.000
13.77500 826.000
13.97000 799.000
14.16500 867.000
14.36000 800.000
14.55500 809.000
14.75000 793.000
14.94500 828.000
15.14000 779.000
15.33500 796.000
15.53000 757.000
15.72500 835.000
15.92000 815.000
16.11500 822.000
16.31000 807.000
16.50500 803.000
16.70000 839.000
16.89500 800.000
17.09000 799.000
17.28500 811.000
17.48000 810.000
17.67500 838.000
17.87000 855.000
18.06500 822.000
18.26000 833.000
18.45500 816.000
18.65000 789.000
18.84500 809.000
19.04000 796.000
19.23500 779.000
19.43000 802.000
19.62500 816.000
19.82000 796.000
20.01500 844.000
20.21000 875.000
20.40500 815.000
20.60000 816.000
20.79500 865.000
20.99000 911.000
21.18500 1003.000
21.38000 1107.000
21.57500 1061.000
21.77000 957.000
21.96500 990.000
22.16000 944.000
22.35500 972.000
22.55000 1008.000
22.74500 985.000
22.94000 1051.000
23.13500 1044.000
23.33000 1030.000
23.52500 1098.000
23.72000 1082.000
23.91500 1113.000
24.11000 1127.000
24.30500 1141.000
24.50000 1123.000
24.69500 1127.000
24.89000 1188.000
25.08500 1142.000
25.28000 1153.000
25.47500 1077.000
25.67000 1110.000
25.86500 1103.000
26.06000 1183.000
26.25500 1150.000
26.45000 1171.000
26.64500 1220.000
26.84000 1301.000
27.03500 1322.000
27.23000 1388.000
27.42500 1500.000
27.62000 1735.000
27.81500 2201.000
28.01000 3132.000
28.20500 4992.000
28.40000 6236.000
28.59500 3936.000
28.79000 2565.000
28.98500 1904.000
29.18000 1710.000
29.37500 1490.000
29.57000 1342.000
29.76500 1250.000
29.96000 1201.000
30.15500 1136.000
30.35000 1104.000
30.54500 1063.000
30.74000 1026.000
30.93500 1016.000
31.13000 1024.000
31.32500 911.000
31.52000 969.000
31.71500 918.000
31.91000 931.000
32.10500 936.000
32.30000 1030.000
32.49500 956.000
32.69000 949.000
32.88500 817.000
33.08000 798.000
33.27500 790.000
33.47000 766.000
33.66500 788.000
33.86000 747.000
34.05500 743.000
34.25000 736.000
34.44500 738.000
34.64000 733.000
34.83500 734.000
35.03000 737.000
35.22500 883.000
35.42000 964.000
35.61500 933.000
35.81000 931.000
36.00500 907.000
36.20000 871.000
36.39500 901.000
36.59000 918.000
36.78500 911.000
36.98000 874.000
37.17500 888.000
37.37000 899.000
37.56500 802.000
37.76000 877.000
37.95500 773.000
38.15000 771.000
38.34500 760.000
38.54000 691.000
38.73500 716.000
38.93000 728.000
39.12500 696.000
39.32000 697.000
39.51500 681.000
39.71000 687.000
39.90500 651.000
40.10000 637.000
40.29500 621.000
40.49000 658.000
40.68500 604.000
40.88000 596.000
41.07500 619.000
41.27000 586.000
41.46500 557.000
41.66000 587.000
41.85500 549.000
42.05000 559.000
42.24500 590.000
42.44000 625.000
42.63500 590.000
42.83000 610.000
43.02500 674.000
43.22000 749.000
43.41500 742.000
43.61000 731.000
43.80500 704.000
44.00000 699.000
44.19500 669.000
44.39000 670.000
44.58500 700.000
44.78000 652.000
44.97500 661.000
45.17000 661.000
45.36500 646.000
45.56000 641.000
45.75500 601.000
45.95000 545.000
46.14500 565.000
46.34000 535.000
46.53500 540.000
46.73000 545.000
46.92500 508.000
47.12000 479.000
47.31500 493.000
47.51000 537.000
47.70500 465.000
47.90000 452.000
48.09500 484.000
48.29000 457.000
48.48500 472.000
48.68000 438.000
48.87500 462.000
49.07000 445.000
49.26500 447.000
49.46000 454.000
49.65500 475.000
49.85000 454.000
50.04500 490.000
50.24000 479.000
50.43500 487.000
50.63000 465.000
50.82500 459.000
51.02000 486.000
51.21500 423.000
51.41000 462.000
51.60500 457.000
51.80000 476.000
51.99500 457.000
52.19000 468.000
52.38500 473.000
52.58000 444.000
52.77500 464.000
52.97000 492.000
53.16500 459.000
53.36000 434.000
53.55500 465.000
53.75000 464.000
53.94500 465.000
54.14000 402.000
54.33500 423.000
54.53000 395.000
54.72500 443.000
54.92000 420.000
55.11500 441.000
55.31000 416.000
55.50500 388.000
55.70000 432.000
55.89500 396.000
56.09000 403.000
56.28500 402.000
56.48000 404.000
56.67500 433.000
56.87000 374.000
57.06500 420.000
57.26000 461.000
57.45500 431.000
57.65000 446.000
57.84500 443.000
58.04000 453.000
58.23500 470.000
58.43000 487.000
58.62500 541.000
58.82000 492.000
59.01500 493.000
59.21000 458.000
59.40500 464.000
59.60000 430.000
59.79500 399.000
59.99000 389.000
60.18500 401.000
60.38000 380.000
60.48500 409.000