File: ISoD/xrd_data/HSC023_ranges_combined.xy
2.0 920.0
2.21 734.0
2.42 635.0
2.63 527.0
2.84 467.0
3.05 420.0
3.26 440.0
3.47 425.0
3.68 407.0
3.89 427.0
4.1 443.0
4.31 390.0
4.52 412.0
4.73 396.0
4.94 388.0
5.15 405.0
5.36 415.0
5.57 396.0
5.78 424.0
5.99 403.0
6.2 385.0
6.41 422.0
6.62 407.0
6.83 387.0
7.04 417.0
7.25 428.0
7.46 409.0
7.67 385.0
7.88 406.0
8.09 416.0
8.3 427.0
8.51 409.0
8.72 397.0
8.93 397.0
9.14 404.0
9.35 385.0
9.56 398.0
9.77 350.0
9.98 358.0
10.19 391.0
10.4 426.0
10.61 385.0
10.82 395.0
11.03 373.0
11.24 407.0
11.45 392.0
11.66 418.0
11.87 381.0
12.08 388.0
12.29 408.0
12.5 368.0
12.71 397.0
12.92 399.0
13.13 396.0
13.34 358.0
13.55 373.0
13.76 379.0
13.97 364.0
14.18 389.0
14.39 404.0
14.6 366.0
14.81 376.0
15.02 372.0
15.23 366.0
15.44 412.0
15.65 381.0
15.86 383.0
16.07 414.0
16.28 387.0
16.49 406.0
16.7 410.0
16.91 399.0
17.12 417.0
17.33 397.0
17.54 456.0
17.75 387.0
17.96 428.0
18.17 421.0
18.38 413.0
18.59 414.0
18.8 434.0
19.01 449.0
19.22 450.0
19.43 466.0
19.64 447.0
19.85 479.0
20.06 458.0
20.27 449.0
20.48 481.0
20.69 502.0
20.9 491.0
21.11 494.0
21.32 504.0
21.53 519.0
21.74 483.0
21.95 495.0
22.16 537.0
22.37 534.0
22.58 517.0
22.79 545.0
23.0 517.0
23.21 537.0
23.42 559.0
23.63 531.0
23.84 566.0
24.05 583.0
24.26 563.0
24.47 569.0
24.68 598.0
24.89 624.0
25.1 621.0
25.31 564.0
25.52 628.0
25.73 631.0
25.94 643.0
26.15 623.0
26.36 664.0
26.57 667.0
26.78 700.0
26.99 695.0
27.2 657.0
27.41 649.0
27.62 679.0
27.83 640.0
28.04 603.0
28.25 572.0
28.46 535.0
28.67 548.0
28.88 534.0
29.09 505.0
29.3 499.0
29.51 452.0
29.72 483.0
29.93 462.0
30.14 455.0
30.35 429.0
30.56 446.0
30.77 395.0
30.98 406.0
31.19 371.0
31.4 405.0
31.61 414.0
31.82 382.0
32.03 375.0
32.24 373.0
32.45 357.0
32.66 363.0
32.87 336.0
33.08 340.0
33.29 311.0
33.5 340.0
33.71 345.0
33.92 321.0
34.13 323.0
34.34 324.0
34.55 285.0
34.76 286.0
34.97 288.0
35.18 287.0
35.39 291.0
35.6 257.0
35.81 280.0
36.02 286.0
36.23 271.0
36.44 269.0
36.65 257.0
36.86 284.0
37.07 280.0
37.28 269.0
37.49 253.0
37.7 247.0
37.91 253.0
38.12 226.0
38.33 253.0
38.54 252.0
38.75 222.0
38.96 231.0
39.17 224.0
39.38 225.0
39.59 232.0
39.8 228.0
40.01 218.0
40.22 223.0
40.43 234.0
40.64 221.0
40.85 230.0
41.06 228.0
41.27 230.0
41.48 220.0
41.69 216.0
41.9 211.0
42.11 219.0
42.32 226.0
42.53 232.0
42.74 207.0
42.95 204.0
43.16 216.0
43.37 199.0
43.58 191.0
43.79 191.0
44.0 224.0
44.21 210.0
44.42 215.0
44.63 213.0
44.84 227.0
45.05 190.0
45.26 212.0
45.47 208.0
45.68 204.0
45.89 215.0
46.1 200.0
46.31 200.0
46.52 196.0
46.73 178.0
46.94 177.0
47.15 211.0
47.36 162.0
47.57 195.0
47.78 186.0
47.99 187.0
48.2 170.0
48.41 185.0
48.62 178.0
48.83 179.0
49.04 174.0
49.25 188.0
49.46 184.0
49.67 173.0
49.88 149.0
50.09 167.0
50.3 170.0
50.51 173.0
50.72 167.0
50.93 158.0
51.14 161.0
51.35 163.0
51.56 166.0
51.77 165.0
51.98 169.0
52.19 164.0
52.4 157.0
52.61 163.0
52.82 156.0
53.03 165.0
53.24 168.0
53.45 157.0
53.66 162.0
53.87 148.0
54.08 164.0
54.29 166.0
54.5 155.0
54.71 157.0
54.92 159.0
55.13 168.0
55.34 174.0
55.55 158.0
55.76 146.0
55.97 148.0
56.18 157.0
56.39 146.0
56.6 146.0
56.81 158.0
57.02 146.0
57.23 152.0
57.44 159.0
57.65 162.0
57.86 151.0
58.07 167.0
58.28 148.0
58.49 143.0
58.7 169.0
58.91 148.0
59.12 145.0
59.33 167.0
59.54 145.0
59.75 149.0
59.96 131.0
60.17 132.0
60.38 133.0
60.59 148.0
60.8 135.0
61.01 148.0
61.22 142.0
61.43 162.0
61.64 139.0
61.85 153.0
61.985 144.0