File: ISoD/xrd_data/HSC026_Soxhlet.xy
2.00000 2.000
2.21000 3.000
2.42000 2.000
2.63000 2.000
2.84000 2.000
3.05000 1.000
3.26000 55.000
3.47000 197.000
3.68000 199.000
3.89000 167.000
4.10000 175.000
4.31000 168.000
4.52000 179.000
4.73000 167.000
4.94000 157.000
5.15000 153.000
5.36000 170.000
5.57000 162.000
5.78000 166.000
5.99000 167.000
6.20000 183.000
6.41000 157.000
6.62000 151.000
6.83000 198.000
7.04000 182.000
7.25000 200.000
7.46000 166.000
7.67000 208.000
7.88000 186.000
8.09000 202.000
8.30000 226.000
8.51000 300.000
8.72000 279.000
8.93000 225.000
9.14000 205.000
9.35000 207.000
9.56000 200.000
9.77000 205.000
9.98000 211.000
10.19000 227.000
10.40000 233.000
10.61000 228.000
10.82000 241.000
11.03000 253.000
11.24000 348.000
11.45000 710.000
11.66000 736.000
11.87000 470.000
12.08000 269.000
12.29000 235.000
12.50000 215.000
12.71000 256.000
12.92000 300.000
13.13000 255.000
13.34000 239.000
13.55000 187.000
13.76000 207.000
13.97000 204.000
14.18000 209.000
14.39000 196.000
14.60000 183.000
14.81000 191.000
15.02000 185.000
15.23000 190.000
15.44000 199.000
15.65000 177.000
15.86000 198.000
16.07000 179.000
16.28000 203.000
16.49000 178.000
16.70000 190.000
16.91000 176.000
17.12000 184.000
17.33000 203.000
17.54000 203.000
17.75000 188.000
17.96000 196.000
18.17000 216.000
18.38000 226.000
18.59000 217.000
18.80000 213.000
19.01000 193.000
19.22000 193.000
19.43000 231.000
19.64000 208.000
19.85000 220.000
20.06000 227.000
20.27000 209.000
20.48000 198.000
20.69000 200.000
20.90000 200.000
21.11000 181.000
21.32000 210.000
21.53000 198.000
21.74000 177.000
21.95000 192.000
22.16000 234.000
22.37000 202.000
22.58000 218.000
22.79000 230.000
23.00000 231.000
23.21000 235.000
23.42000 234.000
23.63000 233.000
23.84000 232.000
24.05000 259.000
24.26000 276.000
24.47000 270.000
24.68000 262.000
24.89000 308.000
25.10000 417.000
25.31000 484.000
25.52000 725.000
25.73000 583.000
25.94000 443.000
26.15000 369.000
26.36000 391.000
26.57000 378.000
26.78000 387.000
26.99000 486.000
27.20000 630.000
27.41000 785.000
27.62000 618.000
27.83000 335.000
28.04000 258.000
28.25000 232.000
28.46000 227.000
28.67000 221.000
28.88000 205.000
29.09000 198.000
29.30000 204.000
29.51000 196.000
29.72000 182.000
29.93000 200.000
30.14000 234.000
30.35000 260.000
30.56000 237.000
30.77000 218.000
30.98000 195.000
31.19000 184.000
31.40000 177.000
31.61000 162.000
31.82000 154.000
32.03000 136.000
32.24000 171.000
32.45000 165.000
32.66000 136.000
32.87000 154.000
33.08000 149.000
33.29000 141.000
33.50000 148.000
33.71000 143.000
33.92000 160.000
34.13000 132.000
34.34000 142.000
34.55000 150.000
34.76000 148.000
34.97000 134.000
35.18000 143.000
35.39000 118.000
35.60000 120.000
35.81000 118.000
36.02000 122.000
36.23000 109.000
36.44000 117.000
36.65000 99.000
36.86000 105.000
37.07000 106.000
37.28000 112.000
37.49000 117.000
37.70000 103.000
37.91000 108.000
38.12000 116.000
38.33000 106.000
38.54000 96.000
38.75000 114.000
38.96000 113.000
39.17000 100.000
39.38000 94.000
39.59000 101.000
39.80000 106.000
40.01000 125.000
40.22000 135.000
40.43000 123.000
40.64000 123.000
40.85000 129.000
41.06000 113.000
41.27000 125.000
41.48000 114.000
41.69000 93.000
41.90000 96.000
42.11000 103.000
42.32000 109.000
42.53000 90.000
42.74000 112.000
42.95000 92.000
43.16000 100.000
43.37000 101.000
43.58000 105.000
43.79000 97.000
44.00000 89.000
44.21000 104.000
44.42000 101.000
44.63000 105.000
44.84000 83.000
45.05000 88.000
45.26000 117.000
45.47000 100.000
45.68000 98.000
45.89000 104.000
46.10000 100.000
46.31000 119.000
46.52000 94.000
46.73000 84.000
46.94000 110.000
47.15000 99.000
47.36000 85.000
47.57000 79.000
47.78000 104.000
47.99000 86.000
48.20000 85.000
48.41000 92.000
48.62000 89.000
48.83000 94.000
49.04000 82.000
49.25000 82.000
49.46000 82.000
49.67000 95.000
49.88000 65.000
50.09000 82.000
50.30000 86.000
50.51000 93.000
50.72000 84.000
50.93000 81.000
51.14000 83.000
51.35000 91.000
51.56000 80.000
51.77000 83.000
51.98000 72.000
52.19000 87.000
52.40000 83.000
52.61000 84.000
52.82000 95.000
53.03000 97.000
53.24000 93.000
53.45000 78.000
53.66000 96.000
53.87000 75.000
54.08000 92.000
54.29000 81.000
54.50000 87.000
54.71000 92.000
54.92000 82.000
55.13000 91.000
55.34000 84.000
55.55000 77.000
55.76000 71.000
55.97000 79.000
56.18000 90.000
56.39000 82.000
56.60000 82.000
56.81000 86.000
57.02000 74.000
57.23000 67.000
57.44000 81.000
57.65000 83.000
57.86000 77.000
58.07000 68.000
58.28000 81.000
58.49000 81.000
58.70000 73.000
58.91000 68.000
59.12000 85.000
59.33000 71.000
59.54000 77.000
59.75000 60.000
59.96000 87.000
60.17000 72.000
60.38000 61.000
60.59000 70.000
60.80000 65.000
61.01000 71.000
61.22000 72.000
61.43000 72.000
61.64000 50.000
61.85000 77.000
61.98500 76.000