File: ISoD/xrd_data/HSC076_nSaeure.xy
2.00000 0.000
2.21000 3.000
2.42000 3.000
2.63000 0.000
2.84000 4.000
3.05000 1.000
3.26000 97.000
3.47000 171.000
3.68000 169.000
3.89000 166.000
4.10000 205.000
4.31000 196.000
4.52000 211.000
4.73000 178.000
4.94000 226.000
5.15000 236.000
5.36000 210.000
5.57000 219.000
5.78000 210.000
5.99000 229.000
6.20000 227.000
6.41000 249.000
6.62000 238.000
6.83000 273.000
7.04000 245.000
7.25000 293.000
7.46000 290.000
7.67000 264.000
7.88000 287.000
8.09000 265.000
8.30000 260.000
8.51000 270.000
8.72000 269.000
8.93000 283.000
9.14000 286.000
9.35000 257.000
9.56000 277.000
9.77000 261.000
9.98000 257.000
10.19000 277.000
10.40000 276.000
10.61000 281.000
10.82000 289.000
11.03000 261.000
11.24000 306.000
11.45000 250.000
11.66000 255.000
11.87000 299.000
12.08000 268.000
12.29000 308.000
12.50000 279.000
12.71000 337.000
12.92000 313.000
13.13000 297.000
13.34000 321.000
13.55000 400.000
13.76000 469.000
13.97000 377.000
14.18000 334.000
14.39000 347.000
14.60000 319.000
14.81000 325.000
15.02000 333.000
15.23000 347.000
15.44000 357.000
15.65000 394.000
15.86000 996.000
16.07000 659.000
16.28000 434.000
16.49000 522.000
16.70000 344.000
16.91000 322.000
17.12000 375.000
17.33000 359.000
17.54000 371.000
17.75000 418.000
17.96000 498.000
18.17000 620.000
18.38000 588.000
18.59000 661.000
18.80000 520.000
19.01000 431.000
19.22000 479.000
19.43000 481.000
19.64000 391.000
19.85000 363.000
20.06000 325.000
20.27000 308.000
20.48000 324.000
20.69000 323.000
20.90000 327.000
21.11000 320.000
21.32000 335.000
21.53000 314.000
21.74000 322.000
21.95000 344.000
22.16000 354.000
22.37000 493.000
22.58000 403.000
22.79000 350.000
23.00000 350.000
23.21000 359.000
23.42000 370.000
23.63000 390.000
23.84000 504.000
24.05000 401.000
24.26000 325.000
24.47000 362.000
24.68000 425.000
24.89000 417.000
25.10000 387.000
25.31000 443.000
25.52000 436.000
25.73000 414.000
25.94000 416.000
26.15000 423.000
26.36000 484.000
26.57000 618.000
26.78000 1161.000
26.99000 2324.000
27.20000 1439.000
27.41000 893.000
27.62000 3104.000
27.83000 1396.000
28.04000 720.000
28.25000 496.000
28.46000 468.000
28.67000 503.000
28.88000 474.000
29.09000 458.000
29.30000 399.000
29.51000 418.000
29.72000 343.000
29.93000 379.000
30.14000 346.000
30.35000 349.000
30.56000 352.000
30.77000 377.000
30.98000 382.000
31.19000 389.000
31.40000 369.000
31.61000 407.000
31.82000 424.000
32.03000 574.000
32.24000 565.000
32.45000 507.000
32.66000 554.000
32.87000 533.000
33.08000 592.000
33.29000 546.000
33.50000 416.000
33.71000 395.000
33.92000 318.000
34.13000 309.000
34.34000 316.000
34.55000 298.000
34.76000 350.000
34.97000 289.000
35.18000 294.000
35.39000 343.000
35.60000 273.000
35.81000 286.000
36.02000 257.000
36.23000 264.000
36.44000 281.000
36.65000 261.000
36.86000 257.000
37.07000 262.000
37.28000 234.000
37.49000 240.000
37.70000 223.000
37.91000 197.000
38.12000 205.000
38.33000 218.000
38.54000 233.000
38.75000 211.000
38.96000 218.000
39.17000 249.000
39.38000 227.000
39.59000 239.000
39.80000 213.000
40.01000 233.000
40.22000 238.000
40.43000 231.000
40.64000 191.000
40.85000 227.000
41.06000 214.000
41.27000 240.000
41.48000 226.000
41.69000 230.000
41.90000 199.000
42.11000 194.000
42.32000 230.000
42.53000 224.000
42.74000 218.000
42.95000 248.000
43.16000 238.000
43.37000 236.000
43.58000 215.000
43.79000 199.000
44.00000 178.000
44.21000 204.000
44.42000 191.000
44.63000 216.000
44.84000 181.000
45.05000 205.000
45.26000 208.000
45.47000 213.000
45.68000 210.000
45.89000 282.000
46.10000 214.000
46.31000 201.000
46.52000 175.000
46.73000 197.000
46.94000 197.000
47.15000 199.000
47.36000 200.000
47.57000 174.000
47.78000 163.000
47.99000 167.000
48.20000 177.000
48.41000 192.000
48.62000 184.000
48.83000 222.000
49.04000 216.000
49.25000 226.000
49.46000 204.000
49.67000 201.000
49.88000 171.000
50.09000 176.000
50.30000 193.000
50.51000 204.000
50.72000 185.000
50.93000 201.000
51.14000 182.000
51.35000 185.000
51.56000 184.000
51.77000 179.000
51.98000 167.000
52.19000 179.000
52.40000 169.000
52.61000 194.000
52.82000 194.000
53.03000 200.000
53.24000 214.000
53.45000 182.000
53.66000 168.000
53.87000 164.000
54.08000 168.000
54.29000 159.000
54.50000 161.000
54.71000 171.000
54.92000 178.000
55.13000 177.000
55.34000 183.000
55.55000 179.000
55.76000 204.000
55.97000 178.000
56.18000 187.000
56.39000 181.000
56.60000 189.000
56.81000 183.000
57.02000 197.000
57.23000 228.000
57.44000 184.000
57.65000 175.000
57.86000 160.000
58.07000 175.000
58.28000 150.000
58.49000 175.000
58.70000 164.000
58.91000 181.000
59.12000 156.000
59.33000 168.000
59.54000 168.000
59.75000 149.000
59.96000 160.000
60.17000 170.000
60.38000 160.000
60.59000 173.000
60.80000 163.000
61.01000 149.000
61.22000 142.000
61.43000 137.000
61.64000 139.000
61.85000 121.000
61.98500 155.000