File: ISoD/xrd_data/HSC006A.xy
2.00000 366.000
2.21000 307.000
2.42000 297.000
2.63000 268.000
2.84000 250.000
3.05000 233.000
3.26000 207.000
3.47000 252.000
3.68000 234.000
3.89000 232.000
4.10000 211.000
4.31000 226.000
4.52000 231.000
4.73000 208.000
4.94000 239.000
5.15000 217.000
5.36000 230.000
5.57000 252.000
5.78000 230.000
5.99000 248.000
6.20000 260.000
6.41000 259.000
6.62000 272.000
6.83000 233.000
7.04000 225.000
7.25000 232.000
7.46000 215.000
7.67000 221.000
7.88000 217.000
8.09000 231.000
8.30000 258.000
8.51000 237.000
8.72000 260.000
8.93000 309.000
9.14000 353.000
9.35000 408.000
9.56000 477.000
9.77000 309.000
9.98000 286.000
10.19000 266.000
10.40000 246.000
10.61000 247.000
10.82000 226.000
11.03000 227.000
11.24000 245.000
11.45000 236.000
11.66000 244.000
11.87000 270.000
12.08000 1193.000
12.29000 359.000
12.50000 299.000
12.71000 308.000
12.92000 287.000
13.13000 330.000
13.34000 421.000
13.55000 280.000
13.76000 341.000
13.97000 295.000
14.18000 285.000
14.39000 262.000
14.60000 258.000
14.81000 244.000
15.02000 249.000
15.23000 251.000
15.44000 255.000
15.65000 269.000
15.86000 266.000
16.07000 254.000
16.28000 283.000
16.49000 245.000
16.70000 260.000
16.91000 291.000
17.12000 261.000
17.33000 281.000
17.54000 306.000
17.75000 307.000
17.96000 299.000
18.17000 350.000
18.38000 315.000
18.59000 368.000
18.80000 406.000
19.01000 479.000
19.22000 482.000
19.43000 475.000
19.64000 440.000
19.85000 522.000
20.06000 924.000
20.27000 403.000
20.48000 381.000
20.69000 354.000
20.90000 415.000
21.11000 650.000
21.32000 489.000
21.53000 456.000
21.74000 456.000
21.95000 469.000
22.16000 585.000
22.37000 379.000
22.58000 349.000
22.79000 337.000
23.00000 342.000
23.21000 327.000
23.42000 311.000
23.63000 300.000
23.84000 337.000
24.05000 301.000
24.26000 362.000
24.47000 334.000
24.68000 354.000
24.89000 347.000
25.10000 343.000
25.31000 363.000
25.52000 315.000
25.73000 336.000
25.94000 336.000
26.15000 372.000
26.36000 339.000
26.57000 358.000
26.78000 393.000
26.99000 366.000
27.20000 355.000
27.41000 364.000
27.62000 350.000
27.83000 370.000
28.04000 335.000
28.25000 370.000
28.46000 395.000
28.67000 470.000
28.88000 534.000
29.09000 470.000
29.30000 396.000
29.51000 350.000
29.72000 325.000
29.93000 308.000
30.14000 285.000
30.35000 263.000
30.56000 282.000
30.77000 277.000
30.98000 269.000
31.19000 268.000
31.40000 262.000
31.61000 265.000
31.82000 294.000
32.03000 331.000
32.24000 645.000
32.45000 1119.000
32.66000 646.000
32.87000 560.000
33.08000 759.000
33.29000 418.000
33.50000 344.000
33.71000 367.000
33.92000 298.000
34.13000 308.000
34.34000 255.000
34.55000 267.000
34.76000 268.000
34.97000 327.000
35.18000 343.000
35.39000 256.000
35.60000 237.000
35.81000 231.000
36.02000 215.000
36.23000 208.000
36.44000 202.000
36.65000 182.000
36.86000 218.000
37.07000 221.000
37.28000 208.000
37.49000 204.000
37.70000 190.000
37.91000 196.000
38.12000 220.000
38.33000 228.000
38.54000 217.000
38.75000 182.000
38.96000 205.000
39.17000 174.000
39.38000 183.000
39.59000 187.000
39.80000 168.000
40.01000 193.000
40.22000 199.000
40.43000 192.000
40.64000 214.000
40.85000 189.000
41.06000 180.000
41.27000 179.000
41.48000 203.000
41.69000 184.000
41.90000 192.000
42.11000 184.000
42.32000 198.000
42.53000 234.000
42.74000 351.000
42.95000 324.000
43.16000 300.000
43.37000 277.000
43.58000 225.000
43.79000 204.000
44.00000 183.000
44.21000 207.000
44.42000 208.000
44.63000 328.000
44.84000 286.000
45.05000 270.000
45.26000 238.000
45.47000 230.000
45.68000 225.000
45.89000 215.000
46.10000 213.000
46.31000 211.000
46.52000 230.000
46.73000 211.000
46.94000 212.000
47.15000 217.000
47.36000 236.000
47.57000 266.000
47.78000 230.000
47.99000 213.000
48.20000 225.000
48.41000 184.000
48.62000 195.000
48.83000 171.000
49.04000 218.000
49.25000 210.000
49.46000 219.000
49.67000 264.000
49.88000 608.000
50.09000 269.000
50.30000 220.000
50.51000 192.000
50.72000 181.000
50.93000 180.000
51.14000 172.000
51.35000 184.000
51.56000 188.000
51.77000 182.000
51.98000 192.000
52.19000 180.000
52.40000 173.000
52.61000 206.000
52.82000 178.000
53.03000 190.000
53.24000 187.000
53.45000 181.000
53.66000 183.000
53.87000 183.000
54.08000 182.000
54.29000 207.000
54.50000 212.000
54.71000 247.000
54.92000 199.000
55.13000 181.000
55.34000 187.000
55.55000 184.000
55.76000 177.000
55.97000 169.000
56.18000 167.000
56.39000 176.000
56.60000 166.000
56.81000 171.000
57.02000 166.000
57.23000 158.000
57.44000 199.000
57.65000 219.000
57.86000 205.000
58.07000 186.000
58.28000 170.000
58.49000 162.000
58.70000 163.000
58.91000 160.000
59.12000 162.000
59.33000 159.000
59.54000 148.000
59.75000 150.000
59.96000 151.000
60.17000 153.000
60.38000 157.000
60.59000 160.000
60.80000 158.000
61.01000 143.000
61.22000 155.000
61.43000 150.000
61.64000 167.000
61.85000 177.000
61.98500 171.000