File: ISoD/xrd_data/HSC065.xy
2.00000 2.000
2.21000 3.000
2.42000 3.000
2.63000 6.000
2.84000 3.000
3.05000 381.000
3.26000 387.000
3.47000 405.000
3.68000 351.000
3.89000 375.000
4.10000 351.000
4.31000 361.000
4.52000 354.000
4.73000 345.000
4.94000 392.000
5.15000 372.000
5.36000 385.000
5.57000 373.000
5.78000 383.000
5.99000 397.000
6.20000 404.000
6.41000 412.000
6.62000 410.000
6.83000 397.000
7.04000 413.000
7.25000 411.000
7.46000 425.000
7.67000 435.000
7.88000 391.000
8.09000 394.000
8.30000 383.000
8.51000 418.000
8.72000 411.000
8.93000 388.000
9.14000 398.000
9.35000 449.000
9.56000 426.000
9.77000 444.000
9.98000 441.000
10.19000 565.000
10.40000 503.000
10.61000 515.000
10.82000 565.000
11.03000 567.000
11.24000 493.000
11.45000 435.000
11.66000 478.000
11.87000 713.000
12.08000 2857.000
12.29000 493.000
12.50000 491.000
12.71000 475.000
12.92000 446.000
13.13000 436.000
13.34000 411.000
13.55000 422.000
13.76000 424.000
13.97000 430.000
14.18000 443.000
14.39000 447.000
14.60000 421.000
14.81000 461.000
15.02000 414.000
15.23000 451.000
15.44000 444.000
15.65000 441.000
15.86000 440.000
16.07000 416.000
16.28000 435.000
16.49000 451.000
16.70000 439.000
16.91000 470.000
17.12000 461.000
17.33000 455.000
17.54000 415.000
17.75000 457.000
17.96000 443.000
18.17000 432.000
18.38000 449.000
18.59000 450.000
18.80000 473.000
19.01000 448.000
19.22000 456.000
19.43000 455.000
19.64000 453.000
19.85000 491.000
20.06000 461.000
20.27000 492.000
20.48000 495.000
20.69000 590.000
20.90000 1950.000
21.11000 1033.000
21.32000 537.000
21.53000 537.000
21.74000 520.000
21.95000 479.000
22.16000 488.000
22.37000 511.000
22.58000 473.000
22.79000 518.000
23.00000 488.000
23.21000 461.000
23.42000 512.000
23.63000 493.000
23.84000 482.000
24.05000 589.000
24.26000 2360.000
24.47000 695.000
24.68000 906.000
24.89000 1072.000
25.10000 620.000
25.31000 582.000
25.52000 560.000
25.73000 577.000
25.94000 647.000
26.15000 1358.000
26.36000 6372.000
26.57000 1563.000
26.78000 745.000
26.99000 622.000
27.20000 592.000
27.41000 564.000
27.62000 623.000
27.83000 703.000
28.04000 785.000
28.25000 656.000
28.46000 630.000
28.67000 873.000
28.88000 2099.000
29.09000 5071.000
29.30000 2369.000
29.51000 787.000
29.72000 542.000
29.93000 503.000
30.14000 458.000
30.35000 451.000
30.56000 460.000
30.77000 378.000
30.98000 443.000
31.19000 405.000
31.40000 382.000
31.61000 367.000
31.82000 428.000
32.03000 459.000
32.24000 1907.000
32.45000 777.000
32.66000 404.000
32.87000 399.000
33.08000 332.000
33.29000 372.000
33.50000 397.000
33.71000 429.000
33.92000 530.000
34.13000 475.000
34.34000 357.000
34.55000 340.000
34.76000 357.000
34.97000 572.000
35.18000 386.000
35.39000 306.000
35.60000 321.000
35.81000 342.000
36.02000 448.000
36.23000 519.000
36.44000 387.000
36.65000 323.000
36.86000 323.000
37.07000 259.000
37.28000 256.000
37.49000 271.000
37.70000 251.000
37.91000 246.000
38.12000 229.000
38.33000 253.000
38.54000 251.000
38.75000 254.000
38.96000 233.000
39.17000 254.000
39.38000 262.000
39.59000 251.000
39.80000 236.000
40.01000 244.000
40.22000 240.000
40.43000 251.000
40.64000 243.000
40.85000 242.000
41.06000 256.000
41.27000 241.000
41.48000 240.000
41.69000 223.000
41.90000 298.000
42.11000 305.000
42.32000 288.000
42.53000 273.000
42.74000 744.000
42.95000 264.000
43.16000 247.000
43.37000 245.000
43.58000 247.000
43.79000 263.000
44.00000 252.000
44.21000 246.000
44.42000 346.000
44.63000 721.000
44.84000 615.000
45.05000 463.000
45.26000 306.000
45.47000 332.000
45.68000 434.000
45.89000 478.000
46.10000 340.000
46.31000 311.000
46.52000 381.000
46.73000 444.000
46.94000 270.000
47.15000 234.000
47.36000 235.000
47.57000 214.000
47.78000 191.000
47.99000 227.000
48.20000 228.000
48.41000 220.000
48.62000 195.000
48.83000 205.000
49.04000 196.000
49.25000 243.000
49.46000 227.000
49.67000 309.000
49.88000 281.000
50.09000 232.000
50.30000 302.000
50.51000 400.000
50.72000 658.000
50.93000 895.000
51.14000 574.000
51.35000 382.000
51.56000 289.000
51.77000 228.000
51.98000 249.000
52.19000 238.000
52.40000 256.000
52.61000 281.000
52.82000 231.000
53.03000 221.000
53.24000 215.000
53.45000 213.000
53.66000 239.000
53.87000 250.000
54.08000 394.000
54.29000 583.000
54.50000 909.000
54.71000 440.000
54.92000 234.000
55.13000 213.000
55.34000 203.000
55.55000 219.000
55.76000 217.000
55.97000 186.000
56.18000 209.000
56.39000 195.000
56.60000 210.000
56.81000 214.000
57.02000 205.000
57.23000 207.000
57.44000 230.000
57.65000 264.000
57.86000 214.000
58.07000 172.000
58.28000 194.000
58.49000 200.000
58.70000 248.000
58.91000 248.000
59.12000 213.000
59.33000 249.000
59.54000 231.000
59.75000 223.000
59.96000 226.000
60.17000 210.000
60.38000 240.000
60.59000 212.000
60.80000 193.000
61.01000 194.000
61.22000 212.000
61.43000 205.000
61.64000 210.000
61.85000 175.000
61.98500 190.000