File: ISoD/xrd_data/HSC041.xy
2.00000 3.000
2.21000 2.000
2.42000 5.000
2.63000 3.000
2.84000 149.000
3.05000 255.000
3.26000 271.000
3.47000 265.000
3.68000 243.000
3.89000 238.000
4.10000 219.000
4.31000 250.000
4.52000 258.000
4.73000 261.000
4.94000 290.000
5.15000 279.000
5.36000 275.000
5.57000 307.000
5.78000 322.000
5.99000 442.000
6.20000 534.000
6.41000 318.000
6.62000 296.000
6.83000 294.000
7.04000 283.000
7.25000 312.000
7.46000 298.000
7.67000 327.000
7.88000 358.000
8.09000 368.000
8.30000 340.000
8.51000 314.000
8.72000 326.000
8.93000 300.000
9.14000 324.000
9.35000 313.000
9.56000 303.000
9.77000 330.000
9.98000 329.000
10.19000 328.000
10.40000 338.000
10.61000 666.000
10.82000 445.000
11.03000 1569.000
11.24000 344.000
11.45000 333.000
11.66000 323.000
11.87000 355.000
12.08000 399.000
12.29000 753.000
12.50000 372.000
12.71000 382.000
12.92000 400.000
13.13000 423.000
13.34000 409.000
13.55000 406.000
13.76000 379.000
13.97000 372.000
14.18000 371.000
14.39000 412.000
14.60000 416.000
14.81000 466.000
15.02000 401.000
15.23000 385.000
15.44000 408.000
15.65000 392.000
15.86000 405.000
16.07000 405.000
16.28000 375.000
16.49000 411.000
16.70000 413.000
16.91000 409.000
17.12000 399.000
17.33000 422.000
17.54000 514.000
17.75000 430.000
17.96000 399.000
18.17000 375.000
18.38000 410.000
18.59000 411.000
18.80000 358.000
19.01000 392.000
19.22000 391.000
19.43000 386.000
19.64000 410.000
19.85000 406.000
20.06000 384.000
20.27000 408.000
20.48000 375.000
20.69000 381.000
20.90000 341.000
21.11000 463.000
21.32000 419.000
21.53000 388.000
21.74000 383.000
21.95000 418.000
22.16000 397.000
22.37000 399.000
22.58000 387.000
22.79000 468.000
23.00000 381.000
23.21000 398.000
23.42000 412.000
23.63000 378.000
23.84000 399.000
24.05000 397.000
24.26000 414.000
24.47000 416.000
24.68000 434.000
24.89000 402.000
25.10000 407.000
25.31000 420.000
25.52000 664.000
25.73000 509.000
25.94000 460.000
26.15000 427.000
26.36000 483.000
26.57000 632.000
26.78000 588.000
26.99000 641.000
27.20000 903.000
27.41000 1257.000
27.62000 1765.000
27.83000 2006.000
28.04000 1759.000
28.25000 858.000
28.46000 537.000
28.67000 441.000
28.88000 444.000
29.09000 369.000
29.30000 384.000
29.51000 384.000
29.72000 370.000
29.93000 341.000
30.14000 370.000
30.35000 343.000
30.56000 362.000
30.77000 313.000
30.98000 338.000
31.19000 306.000
31.40000 293.000
31.61000 282.000
31.82000 289.000
32.03000 278.000
32.24000 299.000
32.45000 264.000
32.66000 236.000
32.87000 269.000
33.08000 252.000
33.29000 250.000
33.50000 309.000
33.71000 259.000
33.92000 250.000
34.13000 261.000
34.34000 281.000
34.55000 240.000
34.76000 237.000
34.97000 232.000
35.18000 221.000
35.39000 221.000
35.60000 226.000
35.81000 199.000
36.02000 198.000
36.23000 207.000
36.44000 190.000
36.65000 189.000
36.86000 174.000
37.07000 214.000
37.28000 203.000
37.49000 214.000
37.70000 168.000
37.91000 166.000
38.12000 173.000
38.33000 190.000
38.54000 172.000
38.75000 191.000
38.96000 185.000
39.17000 176.000
39.38000 225.000
39.59000 205.000
39.80000 182.000
40.01000 191.000
40.22000 169.000
40.43000 195.000
40.64000 200.000
40.85000 174.000
41.06000 206.000
41.27000 185.000
41.48000 181.000
41.69000 179.000
41.90000 199.000
42.11000 176.000
42.32000 210.000
42.53000 199.000
42.74000 202.000
42.95000 198.000
43.16000 207.000
43.37000 198.000
43.58000 182.000
43.79000 185.000
44.00000 213.000
44.21000 193.000
44.42000 203.000
44.63000 188.000
44.84000 183.000
45.05000 180.000
45.26000 202.000
45.47000 193.000
45.68000 177.000
45.89000 172.000
46.10000 202.000
46.31000 170.000
46.52000 169.000
46.73000 172.000
46.94000 161.000
47.15000 163.000
47.36000 171.000
47.57000 170.000
47.78000 144.000
47.99000 165.000
48.20000 151.000
48.41000 184.000
48.62000 161.000
48.83000 149.000
49.04000 162.000
49.25000 178.000
49.46000 151.000
49.67000 135.000
49.88000 139.000
50.09000 162.000
50.30000 155.000
50.51000 146.000
50.72000 160.000
50.93000 154.000
51.14000 156.000
51.35000 158.000
51.56000 168.000
51.77000 159.000
51.98000 161.000
52.19000 147.000
52.40000 179.000
52.61000 152.000
52.82000 152.000
53.03000 128.000
53.24000 163.000
53.45000 136.000
53.66000 150.000
53.87000 150.000
54.08000 174.000
54.29000 156.000
54.50000 150.000
54.71000 145.000
54.92000 161.000
55.13000 161.000
55.34000 145.000
55.55000 129.000
55.76000 135.000
55.97000 151.000
56.18000 161.000
56.39000 156.000
56.60000 148.000
56.81000 143.000
57.02000 174.000
57.23000 159.000
57.44000 180.000
57.65000 168.000
57.86000 164.000
58.07000 150.000
58.28000 150.000
58.49000 153.000
58.70000 140.000
58.91000 126.000
59.12000 125.000
59.33000 126.000
59.54000 129.000
59.75000 124.000
59.96000 112.000
60.17000 118.000
60.38000 110.000
60.59000 119.000
60.80000 143.000
61.01000 114.000
61.22000 113.000
61.43000 128.000
61.64000 112.000
61.85000 111.000
61.98500 119.000