File: ISoD/xrd_data/HSC094_gew_ranges_combined.xy
2.0 8.0
2.21 8.0
2.42 8.0
2.63 5.0
2.84 10.0
3.05 34.0
3.26 469.0
3.47 432.0
3.68 379.0
3.89 363.0
4.1 351.0
4.31 364.0
4.52 347.0
4.73 347.0
4.94 345.0
5.15 330.0
5.36 362.0
5.57 335.0
5.78 378.0
5.99 343.0
6.2 360.0
6.41 353.0
6.62 361.0
6.83 370.0
7.04 391.0
7.25 359.0
7.46 411.0
7.67 432.0
7.88 422.0
8.09 395.0
8.3 437.0
8.51 508.0
8.72 640.0
8.93 2818.0
9.14 692.0
9.35 479.0
9.56 447.0
9.77 400.0
9.98 471.0
10.19 498.0
10.4 1198.0
10.61 2083.0
10.82 698.0
11.03 428.0
11.24 511.0
11.45 933.0
11.66 8095.0
11.87 994.0
12.08 555.0
12.29 525.0
12.5 474.0
12.71 473.0
12.92 1569.0
13.13 858.0
13.34 2041.0
13.55 443.0
13.76 414.0
13.97 606.0
14.18 445.0
14.39 410.0
14.6 449.0
14.81 753.0
15.02 5481.0
15.23 452.0
15.44 572.0
15.65 541.0
15.86 509.0
16.07 1745.0
16.28 525.0
16.49 650.0
16.7 2535.0
16.91 478.0
17.12 418.0
17.33 435.0
17.54 434.0
17.75 496.0
17.96 1029.0
18.17 1502.0
18.38 527.0
18.59 470.0
18.8 501.0
19.01 435.0
19.22 459.0
19.43 535.0
19.64 4120.0
19.85 446.0
20.06 484.0
20.27 1055.0
20.48 509.0
20.69 880.0
20.9 607.0
21.11 1823.0
21.32 1141.0
21.53 6076.0
21.74 1722.0
21.95 801.0
22.16 637.0
22.37 885.0
22.58 722.0
22.79 828.0
23.0 529.0
23.21 527.0
23.42 896.0
23.63 535.0
23.84 495.0
24.05 480.0
24.26 465.0
24.47 487.0
24.68 484.0
24.89 505.0
25.1 468.0
25.31 474.0
25.52 459.0
25.73 438.0
25.94 473.0
26.15 940.0
26.36 511.0
26.57 562.0
26.78 1409.0
26.99 885.0
27.2 1167.0
27.41 695.0
27.62 2967.0
27.83 914.0
28.04 837.0
28.25 496.0
28.46 736.0
28.67 1053.0
28.88 760.0
29.09 786.0
29.3 486.0
29.51 497.0
29.72 459.0
29.93 507.0
30.14 894.0
30.35 4249.0
30.56 660.0
30.77 480.0
30.98 490.0
31.19 613.0
31.4 615.0
31.61 1271.0
31.82 5240.0
32.03 1019.0
32.24 609.0
32.45 1528.0
32.66 1019.0
32.87 522.0
33.08 428.0
33.29 569.0
33.5 774.0
33.71 632.0
33.92 386.0
34.13 367.0
34.34 384.0
34.55 369.0
34.76 378.0
34.97 466.0
35.18 577.0
35.39 687.0
35.6 1372.0
35.81 444.0
36.02 503.0
36.23 1735.0
36.44 530.0
36.65 678.0
36.86 586.0
37.07 445.0
37.28 580.0
37.49 2033.0
37.7 1041.0
37.91 414.0
38.12 340.0
38.33 409.0
38.54 510.0
38.75 309.0
38.96 304.0
39.17 356.0
39.38 415.0
39.59 371.0
39.8 777.0
40.01 521.0
40.22 340.0
40.43 460.0
40.64 407.0
40.85 1058.0
41.06 524.0
41.27 611.0
41.48 414.0
41.69 503.0
41.9 1047.0
42.11 601.0
42.32 571.0
42.53 502.0
42.74 1275.0
42.95 767.0
43.16 615.0
43.37 1096.0
43.58 760.0
43.79 477.0
44.0 776.0
44.21 577.0
44.42 360.0
44.63 877.0
44.84 702.0
45.05 388.0
45.26 507.0
45.47 1715.0
45.68 771.0
45.89 580.0
46.1 490.0
46.31 470.0
46.52 531.0
46.73 1087.0
46.94 930.0
47.15 483.0
47.36 412.0
47.57 1348.0
47.78 432.0
47.99 1022.0
48.2 772.0
48.41 744.0
48.62 733.0
48.83 654.0
49.04 486.0
49.25 517.0
49.46 333.0
49.67 351.0
49.88 809.0
50.09 589.0
50.3 419.0
50.51 440.0
50.72 634.0
50.93 1015.0
51.14 399.0
51.35 334.0
51.56 387.0
51.77 482.0
51.98 453.0
52.19 324.0
52.4 309.0
52.61 400.0
52.82 870.0
53.03 474.0
53.24 441.0
53.45 376.0
53.66 312.0
53.87 305.0
54.08 310.0
54.29 370.0
54.5 525.0
54.71 729.0
54.92 739.0
55.13 641.0
55.34 1004.0
55.55 637.0
55.76 385.0
55.97 426.0
56.18 577.0
56.39 504.0
56.6 608.0
56.81 624.0
57.02 496.0
57.23 488.0
57.44 414.0
57.65 424.0
57.86 369.0
58.07 604.0
58.28 526.0
58.49 441.0
58.7 412.0
58.91 439.0
59.12 322.0
59.33 350.0
59.54 535.0
59.75 461.0
59.96 552.0
60.17 881.0
60.38 461.0
60.59 362.0
60.8 313.0
61.01 527.0
61.22 476.0
61.43 574.0
61.64 355.0
61.85 320.0
61.985 498.0