File: ISoD/xrd_data/HSC073_range_1.xy
2.00000 6.000
2.21000 1.000
2.42000 5.000
2.63000 2.000
2.84000 6.000
3.05000 3.000
3.26000 62.000
3.47000 206.000
3.68000 224.000
3.89000 231.000
4.10000 245.000
4.31000 266.000
4.52000 257.000
4.73000 277.000
4.94000 281.000
5.15000 307.000
5.36000 302.000
5.57000 347.000
5.78000 308.000
5.99000 340.000
6.20000 343.000
6.41000 352.000
6.62000 362.000
6.83000 371.000
7.04000 393.000
7.25000 360.000
7.46000 400.000
7.67000 368.000
7.88000 382.000
8.09000 373.000
8.30000 416.000
8.51000 433.000
8.72000 393.000
8.93000 390.000
9.14000 396.000
9.35000 430.000
9.56000 431.000
9.77000 388.000
9.98000 441.000
10.19000 416.000
10.40000 402.000
10.61000 399.000
10.82000 424.000
11.03000 392.000
11.24000 458.000
11.45000 424.000
11.66000 439.000
11.87000 424.000
12.08000 439.000
12.29000 444.000
12.50000 460.000
12.71000 422.000
12.92000 454.000
13.13000 439.000
13.34000 484.000
13.55000 475.000
13.76000 477.000
13.97000 456.000
14.18000 501.000
14.39000 491.000
14.60000 475.000
14.81000 465.000
15.02000 470.000
15.23000 478.000
15.44000 476.000
15.65000 515.000
15.86000 463.000
16.07000 474.000
16.28000 467.000
16.49000 510.000
16.70000 468.000
16.91000 481.000
17.12000 484.000
17.33000 527.000
17.54000 477.000
17.75000 512.000
17.96000 496.000
18.17000 532.000
18.38000 528.000
18.59000 500.000
18.80000 520.000
19.01000 544.000
19.22000 539.000
19.43000 542.000
19.64000 506.000
19.85000 502.000
20.06000 525.000
20.27000 551.000
20.48000 513.000
20.69000 528.000
20.90000 505.000
21.11000 498.000
21.32000 570.000
21.53000 507.000
21.74000 572.000
21.95000 513.000
22.16000 536.000
22.37000 502.000
22.58000 548.000
22.79000 545.000
23.00000 507.000
23.21000 506.000
23.42000 535.000
23.63000 493.000
23.84000 492.000
24.05000 523.000
24.26000 530.000
24.47000 491.000
24.68000 505.000
24.89000 491.000
25.10000 471.000
25.31000 492.000
25.52000 499.000
25.73000 478.000
25.94000 476.000
26.15000 451.000
26.36000 467.000
26.57000 441.000
26.78000 444.000
26.99000 437.000
27.20000 452.000
27.41000 403.000
27.62000 386.000
27.83000 401.000
28.04000 415.000
28.25000 386.000
28.46000 402.000
28.67000 394.000
28.88000 382.000
29.09000 380.000
29.30000 410.000
29.51000 410.000
29.72000 411.000
29.93000 373.000
30.14000 371.000
30.35000 377.000
30.56000 337.000
30.77000 348.000
30.98000 365.000
31.19000 342.000
31.40000 335.000
31.61000 350.000
31.82000 341.000
32.03000 320.000
32.24000 315.000
32.45000 313.000
32.66000 292.000
32.87000 300.000
33.08000 289.000
33.29000 266.000
33.50000 284.000
33.71000 299.000
33.92000 265.000
34.13000 265.000
34.34000 288.000
34.55000 255.000
34.76000 260.000
34.97000 254.000
35.18000 243.000
35.39000 273.000
35.60000 239.000
35.81000 242.000
36.02000 241.000
36.23000 242.000
36.44000 228.000
36.65000 227.000
36.86000 218.000
37.07000 193.000
37.28000 185.000
37.49000 207.000
37.70000 201.000
37.91000 199.000
38.12000 195.000
38.33000 196.000
38.54000 189.000
38.75000 226.000
38.96000 197.000
39.17000 213.000
39.38000 204.000
39.59000 197.000
39.80000 176.000
40.01000 186.000
40.22000 196.000
40.43000 189.000
40.64000 206.000
40.85000 172.000
41.06000 187.000
41.27000 171.000
41.48000 176.000
41.69000 182.000
41.90000 175.000
42.11000 172.000
42.32000 182.000
42.53000 164.000
42.74000 187.000
42.95000 168.000
43.16000 165.000
43.37000 179.000
43.58000 183.000
43.79000 158.000
44.00000 172.000
44.21000 164.000
44.42000 161.000
44.63000 175.000
44.84000 163.000
45.05000 158.000
45.26000 157.000
45.47000 164.000
45.68000 167.000
45.89000 146.000
46.10000 157.000
46.31000 152.000
46.52000 160.000
46.73000 155.000
46.94000 154.000
47.15000 145.000
47.36000 166.000
47.57000 157.000
47.78000 159.000
47.99000 156.000
48.20000 142.000
48.41000 159.000
48.62000 145.000
48.83000 153.000
49.04000 165.000
49.25000 158.000
49.46000 156.000
49.67000 139.000
49.88000 155.000
50.09000 151.000
50.30000 146.000
50.51000 125.000
50.72000 130.000
50.93000 147.000
51.14000 124.000
51.35000 134.000
51.56000 123.000
51.77000 144.000
51.98000 130.000
52.19000 127.000
52.40000 132.000
52.61000 127.000
52.82000 132.000
53.03000 158.000
53.24000 133.000
53.45000 132.000
53.66000 149.000
53.87000 115.000
54.08000 119.000
54.29000 112.000
54.50000 128.000
54.71000 127.000
54.92000 119.000
55.13000 131.000
55.34000 136.000
55.55000 142.000
55.76000 140.000
55.97000 114.000
56.18000 121.000
56.39000 143.000
56.60000 135.000
56.81000 150.000
57.02000 142.000
57.23000 127.000
57.44000 127.000
57.65000 135.000
57.86000 129.000
58.07000 133.000
58.28000 119.000
58.49000 120.000
58.70000 109.000
58.91000 113.000
59.12000 113.000
59.33000 95.000
59.54000 127.000
59.75000 127.000
59.96000 122.000
60.17000 113.000
60.38000 116.000
60.59000 106.000
60.80000 124.000
61.01000 122.000
61.22000 110.000
61.43000 122.000
61.64000 112.000
61.85000 112.000
61.98500 98.000