File: ISoD/xrd_data/HSC006B_range_2.xy
2.00000 534.000
2.21000 537.000
2.42000 334.000
2.63000 222.000
2.84000 189.000
3.05000 187.000
3.26000 145.000
3.47000 139.000
3.68000 128.000
3.89000 117.000
4.10000 141.000
4.31000 121.000
4.52000 118.000
4.73000 118.000
4.94000 125.000
5.15000 124.000
5.36000 113.000
5.57000 121.000
5.78000 119.000
5.99000 123.000
6.20000 91.000
6.41000 125.000
6.62000 121.000
6.83000 101.000
7.04000 132.000
7.25000 111.000
7.46000 119.000
7.67000 111.000
7.88000 119.000
8.09000 113.000
8.30000 117.000
8.51000 133.000
8.72000 115.000
8.93000 116.000
9.14000 100.000
9.35000 106.000
9.56000 135.000
9.77000 111.000
9.98000 114.000
10.19000 135.000
10.40000 131.000
10.61000 126.000
10.82000 124.000
11.03000 138.000
11.24000 137.000
11.45000 143.000
11.66000 137.000
11.87000 132.000
12.08000 134.000
12.29000 151.000
12.50000 146.000
12.71000 154.000
12.92000 169.000
13.13000 171.000
13.34000 172.000
13.55000 161.000
13.76000 169.000
13.97000 181.000
14.18000 171.000
14.39000 192.000
14.60000 167.000
14.81000 183.000
15.02000 187.000
15.23000 193.000
15.44000 197.000
15.65000 170.000
15.86000 200.000
16.07000 196.000
16.28000 195.000
16.49000 207.000
16.70000 215.000
16.91000 196.000
17.12000 210.000
17.33000 186.000
17.54000 218.000
17.75000 219.000
17.96000 199.000
18.17000 203.000
18.38000 229.000
18.59000 304.000
18.80000 305.000
19.01000 249.000
19.22000 202.000
19.43000 221.000
19.64000 232.000
19.85000 214.000
20.06000 254.000
20.27000 236.000
20.48000 231.000
20.69000 234.000
20.90000 241.000
21.11000 228.000
21.32000 228.000
21.53000 221.000
21.74000 210.000
21.95000 224.000
22.16000 220.000
22.37000 231.000
22.58000 234.000
22.79000 246.000
23.00000 214.000
23.21000 229.000
23.42000 240.000
23.63000 260.000
23.84000 288.000
24.05000 308.000
24.26000 368.000
24.47000 376.000
24.68000 291.000
24.89000 260.000
25.10000 285.000
25.31000 244.000
25.52000 243.000
25.73000 250.000
25.94000 241.000
26.15000 251.000
26.36000 235.000
26.57000 254.000
26.78000 240.000
26.99000 248.000
27.20000 250.000
27.41000 236.000
27.62000 273.000
27.83000 424.000
28.04000 411.000
28.25000 212.000
28.46000 210.000
28.67000 204.000
28.88000 230.000
29.09000 228.000
29.30000 198.000
29.51000 199.000
29.72000 223.000
29.93000 203.000
30.14000 200.000
30.35000 221.000
30.56000 215.000
30.77000 225.000
30.98000 207.000
31.19000 167.000
31.40000 189.000
31.61000 192.000
31.82000 178.000
32.03000 172.000
32.24000 163.000
32.45000 171.000
32.66000 172.000
32.87000 154.000
33.08000 170.000
33.29000 172.000
33.50000 155.000
33.71000 165.000
33.92000 153.000
34.13000 138.000
34.34000 151.000
34.55000 156.000
34.76000 148.000
34.97000 146.000
35.18000 148.000
35.39000 145.000
35.60000 156.000
35.81000 139.000
36.02000 143.000
36.23000 130.000
36.44000 130.000
36.65000 143.000
36.86000 142.000
37.07000 154.000
37.28000 135.000
37.49000 150.000
37.70000 119.000
37.91000 136.000
38.12000 140.000
38.33000 126.000
38.54000 134.000
38.75000 118.000
38.96000 128.000
39.17000 134.000
39.38000 129.000
39.59000 133.000
39.80000 121.000
40.01000 149.000
40.22000 122.000
40.43000 128.000
40.64000 124.000
40.85000 133.000
41.06000 133.000
41.27000 129.000
41.48000 134.000
41.69000 143.000
41.90000 135.000
42.11000 151.000
42.32000 130.000
42.53000 131.000
42.74000 120.000
42.95000 142.000
43.16000 141.000
43.37000 151.000
43.58000 143.000
43.79000 147.000
44.00000 137.000
44.21000 145.000
44.42000 129.000
44.63000 134.000
44.84000 147.000
45.05000 117.000
45.26000 141.000
45.47000 129.000
45.68000 139.000
45.89000 132.000
46.10000 139.000
46.31000 131.000
46.52000 134.000
46.73000 126.000
46.94000 124.000
47.15000 136.000
47.36000 126.000
47.57000 128.000
47.78000 114.000
47.99000 132.000
48.20000 114.000
48.41000 131.000
48.62000 114.000
48.83000 131.000
49.04000 131.000
49.25000 116.000
49.46000 124.000
49.67000 122.000
49.88000 128.000
50.09000 121.000
50.30000 122.000
50.51000 131.000
50.72000 111.000
50.93000 132.000
51.14000 134.000
51.35000 123.000
51.56000 122.000
51.77000 117.000
51.98000 117.000
52.19000 118.000
52.40000 111.000
52.61000 108.000
52.82000 120.000
53.03000 122.000
53.24000 105.000
53.45000 113.000
53.66000 118.000
53.87000 107.000
54.08000 115.000
54.29000 114.000
54.50000 112.000
54.71000 111.000
54.92000 126.000
55.13000 118.000
55.34000 119.000
55.55000 106.000
55.76000 104.000
55.97000 108.000
56.18000 123.000
56.39000 111.000
56.60000 116.000
56.81000 108.000
57.02000 109.000
57.23000 102.000
57.44000 116.000
57.65000 108.000
57.86000 103.000
58.07000 105.000
58.28000 97.000
58.49000 114.000
58.70000 112.000
58.91000 96.000
59.12000 96.000
59.33000 89.000
59.54000 98.000
59.75000 105.000
59.96000 93.000
60.17000 91.000
60.38000 94.000
60.59000 111.000
60.80000 97.000
61.01000 87.000
61.22000 97.000
61.43000 90.000
61.64000 81.000
61.85000 95.000
61.98500 86.000