File: ISoD/xrd_data/HSC036_Blindprobe.xy
2.00000 2.000
2.21000 2.000
2.42000 3.000
2.63000 3.000
2.84000 27.000
3.05000 143.000
3.26000 140.000
3.47000 140.000
3.68000 165.000
3.89000 179.000
4.10000 201.000
4.31000 205.000
4.52000 206.000
4.73000 207.000
4.94000 240.000
5.15000 234.000
5.36000 244.000
5.57000 228.000
5.78000 228.000
5.99000 265.000
6.20000 237.000
6.41000 250.000
6.62000 244.000
6.83000 273.000
7.04000 281.000
7.25000 250.000
7.46000 290.000
7.67000 280.000
7.88000 285.000
8.09000 269.000
8.30000 290.000
8.51000 326.000
8.72000 433.000
8.93000 2141.000
9.14000 347.000
9.35000 336.000
9.56000 315.000
9.77000 309.000
9.98000 317.000
10.19000 430.000
10.40000 301.000
10.61000 281.000
10.82000 282.000
11.03000 307.000
11.24000 292.000
11.45000 301.000
11.66000 294.000
11.87000 275.000
12.08000 326.000
12.29000 390.000
12.50000 817.000
12.71000 2712.000
12.92000 332.000
13.13000 307.000
13.34000 300.000
13.55000 267.000
13.76000 321.000
13.97000 294.000
14.18000 306.000
14.39000 293.000
14.60000 335.000
14.81000 471.000
15.02000 290.000
15.23000 309.000
15.44000 349.000
15.65000 654.000
15.86000 299.000
16.07000 301.000
16.28000 273.000
16.49000 299.000
16.70000 285.000
16.91000 316.000
17.12000 313.000
17.33000 321.000
17.54000 304.000
17.75000 293.000
17.96000 398.000
18.17000 286.000
18.38000 313.000
18.59000 295.000
18.80000 301.000
19.01000 326.000
19.22000 319.000
19.43000 313.000
19.64000 339.000
19.85000 313.000
20.06000 307.000
20.27000 310.000
20.48000 292.000
20.69000 294.000
20.90000 327.000
21.11000 340.000
21.32000 374.000
21.53000 355.000
21.74000 341.000
21.95000 608.000
22.16000 307.000
22.37000 325.000
22.58000 328.000
22.79000 366.000
23.00000 335.000
23.21000 330.000
23.42000 344.000
23.63000 317.000
23.84000 333.000
24.05000 623.000
24.26000 374.000
24.47000 491.000
24.68000 436.000
24.89000 485.000
25.10000 775.000
25.31000 1766.000
25.52000 1121.000
25.73000 404.000
25.94000 416.000
26.15000 379.000
26.36000 436.000
26.57000 851.000
26.78000 388.000
26.99000 505.000
27.20000 419.000
27.41000 528.000
27.62000 3515.000
27.83000 919.000
28.04000 426.000
28.25000 407.000
28.46000 400.000
28.67000 361.000
28.88000 824.000
29.09000 465.000
29.30000 290.000
29.51000 356.000
29.72000 378.000
29.93000 295.000
30.14000 289.000
30.35000 279.000
30.56000 270.000
30.77000 256.000
30.98000 285.000
31.19000 292.000
31.40000 276.000
31.61000 292.000
31.82000 245.000
32.03000 239.000
32.24000 260.000
32.45000 219.000
32.66000 239.000
32.87000 224.000
33.08000 246.000
33.29000 213.000
33.50000 245.000
33.71000 288.000
33.92000 221.000
34.13000 212.000
34.34000 470.000
34.55000 218.000
34.76000 200.000
34.97000 359.000
35.18000 233.000
35.39000 180.000
35.60000 174.000
35.81000 188.000
36.02000 178.000
36.23000 179.000
36.44000 163.000
36.65000 188.000
36.86000 184.000
37.07000 159.000
37.28000 158.000
37.49000 200.000
37.70000 183.000
37.91000 178.000
38.12000 152.000
38.33000 154.000
38.54000 194.000
38.75000 178.000
38.96000 243.000
39.17000 169.000
39.38000 152.000
39.59000 155.000
39.80000 215.000
40.01000 183.000
40.22000 184.000
40.43000 201.000
40.64000 212.000
40.85000 159.000
41.06000 188.000
41.27000 220.000
41.48000 177.000
41.69000 344.000
41.90000 186.000
42.11000 184.000
42.32000 489.000
42.53000 202.000
42.74000 196.000
42.95000 171.000
43.16000 191.000
43.37000 163.000
43.58000 301.000
43.79000 152.000
44.00000 132.000
44.21000 155.000
44.42000 163.000
44.63000 158.000
44.84000 403.000
45.05000 166.000
45.26000 168.000
45.47000 199.000
45.68000 144.000
45.89000 159.000
46.10000 268.000
46.31000 167.000
46.52000 152.000
46.73000 138.000
46.94000 153.000
47.15000 131.000
47.36000 135.000
47.57000 143.000
47.78000 215.000
47.99000 202.000
48.20000 257.000
48.41000 134.000
48.62000 127.000
48.83000 121.000
49.04000 170.000
49.25000 152.000
49.46000 138.000
49.67000 125.000
49.88000 134.000
50.09000 141.000
50.30000 177.000
50.51000 126.000
50.72000 144.000
50.93000 165.000
51.14000 165.000
51.35000 168.000
51.56000 168.000
51.77000 231.000
51.98000 151.000
52.19000 201.000
52.40000 167.000
52.61000 168.000
52.82000 395.000
53.03000 168.000
53.24000 217.000
53.45000 144.000
53.66000 123.000
53.87000 141.000
54.08000 132.000
54.29000 131.000
54.50000 158.000
54.71000 151.000
54.92000 154.000
55.13000 148.000
55.34000 126.000
55.55000 170.000
55.76000 133.000
55.97000 160.000
56.18000 139.000
56.39000 140.000
56.60000 137.000
56.81000 134.000
57.02000 142.000
57.23000 322.000
57.44000 126.000
57.65000 133.000
57.86000 137.000
58.07000 130.000
58.28000 161.000
58.49000 132.000
58.70000 143.000
58.91000 150.000
59.12000 122.000
59.33000 140.000
59.54000 134.000
59.75000 114.000
59.96000 119.000
60.17000 115.000
60.38000 118.000
60.59000 112.000
60.80000 133.000
61.01000 112.000
61.22000 124.000
61.43000 125.000
61.64000 123.000
61.85000 129.000
61.98500 128.000