File: ISoD/xrd_data/HSC026_nachH2O_ranges_combined.xy
2.0 886.0
2.21 677.0
2.42 554.0
2.63 495.0
2.84 416.0
3.05 377.0
3.26 328.0
3.47 313.0
3.68 309.0
3.89 299.0
4.1 303.0
4.31 339.0
4.52 294.0
4.73 293.0
4.94 308.0
5.15 289.0
5.36 299.0
5.57 299.0
5.78 289.0
5.99 289.0
6.2 283.0
6.41 304.0
6.62 291.0
6.83 311.0
7.04 292.0
7.25 305.0
7.46 267.0
7.67 266.0
7.88 301.0
8.09 309.0
8.3 334.0
8.51 412.0
8.72 345.0
8.93 328.0
9.14 283.0
9.35 313.0
9.56 296.0
9.77 313.0
9.98 350.0
10.19 278.0
10.4 306.0
10.61 311.0
10.82 303.0
11.03 367.0
11.24 428.0
11.45 792.0
11.66 793.0
11.87 585.0
12.08 364.0
12.29 300.0
12.5 327.0
12.71 364.0
12.92 376.0
13.13 353.0
13.34 368.0
13.55 317.0
13.76 298.0
13.97 293.0
14.18 325.0
14.39 298.0
14.6 324.0
14.81 313.0
15.02 308.0
15.23 279.0
15.44 284.0
15.65 329.0
15.86 327.0
16.07 308.0
16.28 333.0
16.49 328.0
16.7 310.0
16.91 311.0
17.12 309.0
17.33 334.0
17.54 335.0
17.75 356.0
17.96 342.0
18.17 353.0
18.38 353.0
18.59 360.0
18.8 386.0
19.01 400.0
19.22 387.0
19.43 388.0
19.64 408.0
19.85 369.0
20.06 393.0
20.27 408.0
20.48 417.0
20.69 440.0
20.9 410.0
21.11 439.0
21.32 451.0
21.53 445.0
21.74 399.0
21.95 430.0
22.16 444.0
22.37 467.0
22.58 433.0
22.79 419.0
23.0 449.0
23.21 500.0
23.42 439.0
23.63 454.0
23.84 469.0
24.05 468.0
24.26 500.0
24.47 498.0
24.68 527.0
24.89 554.0
25.1 600.0
25.31 732.0
25.52 896.0
25.73 728.0
25.94 609.0
26.15 546.0
26.36 555.0
26.57 608.0
26.78 574.0
26.99 712.0
27.2 796.0
27.41 956.0
27.62 785.0
27.83 605.0
28.04 510.0
28.25 443.0
28.46 450.0
28.67 411.0
28.88 405.0
29.09 441.0
29.3 414.0
29.51 381.0
29.72 416.0
29.93 408.0
30.14 409.0
30.35 444.0
30.56 454.0
30.77 413.0
30.98 370.0
31.19 364.0
31.4 337.0
31.61 356.0
31.82 306.0
32.03 307.0
32.24 335.0
32.45 294.0
32.66 296.0
32.87 304.0
33.08 288.0
33.29 275.0
33.5 291.0
33.71 319.0
33.92 265.0
34.13 285.0
34.34 276.0
34.55 237.0
34.76 262.0
34.97 276.0
35.18 258.0
35.39 264.0
35.6 263.0
35.81 231.0
36.02 213.0
36.23 231.0
36.44 195.0
36.65 215.0
36.86 214.0
37.07 225.0
37.28 197.0
37.49 211.0
37.7 201.0
37.91 194.0
38.12 202.0
38.33 209.0
38.54 176.0
38.75 187.0
38.96 186.0
39.17 212.0
39.38 215.0
39.59 194.0
39.8 208.0
40.01 207.0
40.22 205.0
40.43 215.0
40.64 181.0
40.85 223.0
41.06 190.0
41.27 195.0
41.48 205.0
41.69 218.0
41.9 185.0
42.11 201.0
42.32 205.0
42.53 185.0
42.74 181.0
42.95 191.0
43.16 186.0
43.37 198.0
43.58 193.0
43.79 181.0
44.0 166.0
44.21 189.0
44.42 211.0
44.63 170.0
44.84 195.0
45.05 191.0
45.26 190.0
45.47 193.0
45.68 187.0
45.89 194.0
46.1 175.0
46.31 175.0
46.52 154.0
46.73 181.0
46.94 170.0
47.15 171.0
47.36 151.0
47.57 171.0
47.78 156.0
47.99 150.0
48.2 157.0
48.41 175.0
48.62 167.0
48.83 166.0
49.04 160.0
49.25 160.0
49.46 166.0
49.67 156.0
49.88 158.0
50.09 152.0
50.3 144.0
50.51 163.0
50.72 166.0
50.93 148.0
51.14 165.0
51.35 145.0
51.56 146.0
51.77 161.0
51.98 153.0
52.19 153.0
52.4 142.0
52.61 166.0
52.82 160.0
53.03 159.0
53.24 161.0
53.45 148.0
53.66 152.0
53.87 144.0
54.08 169.0
54.29 145.0
54.5 132.0
54.71 153.0
54.92 143.0
55.13 166.0
55.34 166.0
55.55 135.0
55.76 142.0
55.97 165.0
56.18 147.0
56.39 158.0
56.6 161.0
56.81 149.0
57.02 135.0
57.23 139.0
57.44 172.0
57.65 134.0
57.86 147.0
58.07 143.0
58.28 127.0
58.49 127.0
58.7 141.0
58.91 128.0
59.12 145.0
59.33 153.0
59.54 139.0
59.75 123.0
59.96 134.0
60.17 155.0
60.38 141.0
60.59 158.0
60.8 128.0
61.01 135.0
61.22 134.0
61.43 155.0
61.64 136.0
61.85 144.0
61.985 138.0