File: ISoD/xrd_data/HSC010_R01.xyd
    2.000      569
    2.210      450
    2.420      363
    2.630      305
    2.840      249
    3.050      225
    3.260      220
    3.470      228
    3.680      206
    3.890      182
    4.100      204
    4.310      197
    4.520      193
    4.730      179
    4.940      187
    5.150      195
    5.360      159
    5.570      179
    5.780      176
    5.990      234
    6.200      302
    6.410      188
    6.620      195
    6.830      180
    7.040      182
    7.250      168
    7.460      174
    7.670      190
    7.880      182
    8.090      198
    8.300      179
    8.510      183
    8.720      185
    8.930      181
    9.140      184
    9.350      181
    9.560      175
    9.770      172
    9.980      180
   10.190      178
   10.400      187
   10.610      193
   10.820      193
   11.030      214
   11.240      194
   11.450      196
   11.660      211
   11.870      215
   12.080      309
   12.290     1181
   12.500      294
   12.710      233
   12.920      257
   13.130      246
   13.340      311
   13.550      277
   13.760      226
   13.970      237
   14.180      213
   14.390      207
   14.600      227
   14.810      207
   15.020      213
   15.230      193
   15.440      195
   15.650      222
   15.860      227
   16.070      201
   16.280      218
   16.490      259
   16.700      204
   16.910      223
   17.120      222
   17.330      209
   17.540      204
   17.750      221
   17.960      237
   18.170      239
   18.380      238
   18.590      238
   18.800      261
   19.010      228
   19.220      237
   19.430      315
   19.640      294
   19.850      248
   20.060      257
   20.270      263
   20.480      242
   20.690      265
   20.900      264
   21.110      269
   21.320      251
   21.530      291
   21.740      270
   21.950      265
   22.160      276
   22.370      301
   22.580      269
   22.790      242
   23.000      255
   23.210      271
   23.420      284
   23.630      300
   23.840      285
   24.050      256
   24.260      274
   24.470      278
   24.680      289
   24.890      307
   25.100      285
   25.310      328
   25.520      327
   25.730      431
   25.940      382
   26.150      400
   26.360      514
   26.570      460
   26.780      556
   26.990      599
   27.200      727
   27.410      700
   27.620      717
   27.830      845
   28.040      510
   28.250      379
   28.460      319
   28.670      302
   28.880      272
   29.090      261
   29.300      263
   29.510      233
   29.720      220
   29.930      248
   30.140      239
   30.350      236
   30.560      228
   30.770      245
   30.980      235
   31.190      245
   31.400      205
   31.610      219
   31.820      187
   32.030      190
   32.240      166
   32.450      176
   32.660      181
   32.870      170
   33.080      188
   33.290      162
   33.500      150
   33.710      173
   33.920      181
   34.130      164
   34.340      157
   34.550      158
   34.760      150
   34.970      172
   35.180      150
   35.390      134
   35.600      135
   35.810      149
   36.020      121
   36.230      134
   36.440      128
   36.650      103
   36.860      115
   37.070      129
   37.280      120
   37.490      120
   37.700      121
   37.910      117
   38.120      125
   38.330      111
   38.540      136
   38.750      115
   38.960      111
   39.170      119
   39.380      117
   39.590      105
   39.800      121
   40.010      119
   40.220      133
   40.430      124
   40.640      123
   40.850      128
   41.060      129
   41.270      121
   41.480      123
   41.690      116
   41.900      107
   42.110      112
   42.320      123
   42.530      117
   42.740      139
   42.950      109
   43.160      113
   43.370      121
   43.580       96
   43.790      117
   44.000      123
   44.210      134
   44.420      118
   44.630      113
   44.840      113
   45.050      143
   45.260      116
   45.470      126
   45.680      104
   45.890      123
   46.100      102
   46.310      101
   46.520       97
   46.730      116
   46.940      109
   47.150      121
   47.360      117
   47.570       98
   47.780      111
   47.990       95
   48.200       92
   48.410       97
   48.620       85
   48.830       98
   49.040       90
   49.250      101
   49.460      115
   49.670      103
   49.880       93
   50.090       94
   50.300      114
   50.510      101
   50.720       98
   50.930       92
   51.140       81
   51.350       86
   51.560       87
   51.770       87
   51.980       85
   52.190       90
   52.400       81
   52.610      102
   52.820      103
   53.030      111
   53.240      107
   53.450       88
   53.660       97
   53.870      101
   54.080       89
   54.290       87
   54.500      104
   54.710      109
   54.920       92
   55.130       97
   55.340       96
   55.550      101
   55.760       92
   55.970       87
   56.180      100
   56.390      102
   56.600       98
   56.810      100
   57.020      100
   57.230       85
   57.440       89
   57.650       90
   57.860       98
   58.070       79
   58.280       88
   58.490       84
   58.700       71
   58.910       89
   59.120       73
   59.330       70
   59.540       89
   59.750       62
   59.960       81
   60.170       79
   60.380       72
   60.590       89
   60.800       82
   61.010       88
   61.220       72
   61.430       88
   61.640       90
   61.850       83
   61.985       81