File: ISoD/xrd_data/HSC005II.xy
2.00000 380.000
2.21000 305.000
2.42000 317.000
2.63000 285.000
2.84000 269.000
3.05000 275.000
3.26000 239.000
3.47000 230.000
3.68000 244.000
3.89000 235.000
4.10000 245.000
4.31000 271.000
4.52000 251.000
4.73000 260.000
4.94000 235.000
5.15000 262.000
5.36000 271.000
5.57000 256.000
5.78000 254.000
5.99000 263.000
6.20000 294.000
6.41000 270.000
6.62000 257.000
6.83000 276.000
7.04000 241.000
7.25000 277.000
7.46000 260.000
7.67000 248.000
7.88000 257.000
8.09000 265.000
8.30000 257.000
8.51000 266.000
8.72000 254.000
8.93000 271.000
9.14000 260.000
9.35000 268.000
9.56000 258.000
9.77000 258.000
9.98000 252.000
10.19000 260.000
10.40000 238.000
10.61000 279.000
10.82000 285.000
11.03000 271.000
11.24000 254.000
11.45000 248.000
11.66000 248.000
11.87000 356.000
12.08000 746.000
12.29000 301.000
12.50000 285.000
12.71000 252.000
12.92000 241.000
13.13000 261.000
13.34000 256.000
13.55000 277.000
13.76000 238.000
13.97000 256.000
14.18000 247.000
14.39000 277.000
14.60000 251.000
14.81000 267.000
15.02000 256.000
15.23000 260.000
15.44000 258.000
15.65000 285.000
15.86000 263.000
16.07000 246.000
16.28000 259.000
16.49000 263.000
16.70000 282.000
16.91000 291.000
17.12000 267.000
17.33000 272.000
17.54000 287.000
17.75000 312.000
17.96000 306.000
18.17000 318.000
18.38000 306.000
18.59000 293.000
18.80000 299.000
19.01000 319.000
19.22000 317.000
19.43000 292.000
19.64000 328.000
19.85000 303.000
20.06000 338.000
20.27000 287.000
20.48000 325.000
20.69000 356.000
20.90000 3379.000
21.11000 416.000
21.32000 361.000
21.53000 345.000
21.74000 347.000
21.95000 340.000
22.16000 386.000
22.37000 359.000
22.58000 370.000
22.79000 362.000
23.00000 337.000
23.21000 360.000
23.42000 377.000
23.63000 381.000
23.84000 399.000
24.05000 437.000
24.26000 1492.000
24.47000 575.000
24.68000 442.000
24.89000 468.000
25.10000 682.000
25.31000 675.000
25.52000 485.000
25.73000 473.000
25.94000 471.000
26.15000 428.000
26.36000 543.000
26.57000 557.000
26.78000 613.000
26.99000 750.000
27.20000 690.000
27.41000 701.000
27.62000 728.000
27.83000 1208.000
28.04000 3114.000
28.25000 894.000
28.46000 596.000
28.67000 504.000
28.88000 470.000
29.09000 430.000
29.30000 406.000
29.51000 373.000
29.72000 370.000
29.93000 339.000
30.14000 334.000
30.35000 302.000
30.56000 303.000
30.77000 315.000
30.98000 312.000
31.19000 291.000
31.40000 288.000
31.61000 302.000
31.82000 305.000
32.03000 373.000
32.24000 2713.000
32.45000 304.000
32.66000 337.000
32.87000 483.000
33.08000 454.000
33.29000 298.000
33.50000 277.000
33.71000 283.000
33.92000 269.000
34.13000 244.000
34.34000 260.000
34.55000 255.000
34.76000 281.000
34.97000 303.000
35.18000 541.000
35.39000 360.000
35.60000 285.000
35.81000 219.000
36.02000 228.000
36.23000 218.000
36.44000 219.000
36.65000 487.000
36.86000 194.000
37.07000 168.000
37.28000 181.000
37.49000 186.000
37.70000 178.000
37.91000 180.000
38.12000 194.000
38.33000 184.000
38.54000 189.000
38.75000 191.000
38.96000 181.000
39.17000 193.000
39.38000 174.000
39.59000 207.000
39.80000 192.000
40.01000 204.000
40.22000 178.000
40.43000 198.000
40.64000 172.000
40.85000 198.000
41.06000 244.000
41.27000 384.000
41.48000 284.000
41.69000 217.000
41.90000 214.000
42.11000 181.000
42.32000 175.000
42.53000 220.000
42.74000 199.000
42.95000 213.000
43.16000 193.000
43.37000 194.000
43.58000 194.000
43.79000 191.000
44.00000 223.000
44.21000 214.000
44.42000 902.000
44.63000 337.000
44.84000 306.000
45.05000 391.000
45.26000 280.000
45.47000 188.000
45.68000 178.000
45.89000 174.000
46.10000 192.000
46.31000 260.000
46.52000 182.000
46.73000 178.000
46.94000 172.000
47.15000 170.000
47.36000 177.000
47.57000 170.000
47.78000 146.000
47.99000 156.000
48.20000 184.000
48.41000 156.000
48.62000 162.000
48.83000 155.000
49.04000 152.000
49.25000 171.000
49.46000 212.000
49.67000 293.000
49.88000 261.000
50.09000 510.000
50.30000 341.000
50.51000 244.000
50.72000 188.000
50.93000 178.000
51.14000 201.000
51.35000 205.000
51.56000 283.000
51.77000 409.000
51.98000 239.000
52.19000 188.000
52.40000 174.000
52.61000 168.000
52.82000 192.000
53.03000 168.000
53.24000 186.000
53.45000 177.000
53.66000 179.000
53.87000 158.000
54.08000 169.000
54.29000 311.000
54.50000 262.000
54.71000 176.000
54.92000 159.000
55.13000 161.000
55.34000 149.000
55.55000 176.000
55.76000 149.000
55.97000 186.000
56.18000 215.000
56.39000 265.000
56.60000 208.000
56.81000 170.000
57.02000 168.000
57.23000 182.000
57.44000 289.000
57.65000 175.000
57.86000 202.000
58.07000 183.000
58.28000 168.000
58.49000 166.000
58.70000 150.000
58.91000 157.000
59.12000 149.000
59.33000 154.000
59.54000 176.000
59.75000 146.000
59.96000 159.000
60.17000 151.000
60.38000 155.000
60.59000 164.000
60.80000 185.000
61.01000 162.000
61.22000 166.000
61.43000 136.000
61.64000 159.000
61.85000 176.000
61.98500 180.000