File: ISoD/xrd_data/HSC031.xy
2.00000    1115.000
2.21000    776.000
2.42000    627.000
2.63000    499.000
2.84000    427.000
3.05000    359.000
3.26000    343.000
3.47000    325.000
3.68000    303.000
3.89000    278.000
4.10000    243.000
4.31000    242.000
4.52000    213.000
4.73000    246.000
4.94000    222.000
5.15000    198.000
5.36000    207.000
5.57000    222.000
5.78000    198.000
5.99000    195.000
6.20000    208.000
6.41000    193.000
6.62000    196.000
6.83000    207.000
7.04000    217.000
7.25000    208.000
7.46000    214.000
7.67000    232.000
7.88000    309.000
8.09000    312.000
8.30000    310.000
8.51000    291.000
8.72000    246.000
8.93000    213.000
9.14000    210.000
9.35000    207.000
9.56000    190.000
9.77000    195.000
9.98000    178.000
10.19000    207.000
10.40000    216.000
10.61000    186.000
10.82000    205.000
11.03000    182.000
11.24000    193.000
11.45000    204.000
11.66000    218.000
11.87000    208.000
12.08000    222.000
12.29000    201.000
12.50000    218.000
12.71000    195.000
12.92000    210.000
13.13000    183.000
13.34000    192.000
13.55000    188.000
13.76000    194.000
13.97000    206.000
14.18000    201.000
14.39000    200.000
14.60000    195.000
14.81000    209.000
15.02000    207.000
15.23000    198.000
15.44000    185.000
15.65000    188.000
15.86000    186.000
16.07000    197.000
16.28000    187.000
16.49000    214.000
16.70000    203.000
16.91000    188.000
17.12000    217.000
17.33000    216.000
17.54000    198.000
17.75000    192.000
17.96000    212.000
18.17000    213.000
18.38000    206.000
18.59000    225.000
18.80000    225.000
19.01000    239.000
19.22000    213.000
19.43000    220.000
19.64000    225.000
19.85000    238.000
20.06000    236.000
20.27000    262.000
20.48000    246.000
20.69000    244.000
20.90000    289.000
21.11000    302.000
21.32000    267.000
21.53000    262.000
21.74000    281.000
21.95000    284.000
22.16000    273.000
22.37000    262.000
22.58000    278.000
22.79000    285.000
23.00000    283.000
23.21000    267.000
23.42000    305.000
23.63000    289.000
23.84000    286.000
24.05000    306.000
24.26000    279.000
24.47000    312.000
24.68000    267.000
24.89000    313.000
25.10000    337.000
25.31000    313.000
25.52000    338.000
25.73000    304.000
25.94000    348.000
26.15000    336.000
26.36000    388.000
26.57000    483.000
26.78000    523.000
26.99000    544.000
27.20000    506.000
27.41000    490.000
27.62000    477.000
27.83000    485.000
28.04000    492.000
28.25000    420.000
28.46000    422.000
28.67000    405.000
28.88000    347.000
29.09000    381.000
29.30000    354.000
29.51000    351.000
29.72000    304.000
29.93000    323.000
30.14000    294.000
30.35000    285.000
30.56000    266.000
30.77000    249.000
30.98000    237.000
31.19000    239.000
31.40000    232.000
31.61000    243.000
31.82000    231.000
32.03000    254.000
32.24000    238.000
32.45000    239.000
32.66000    229.000
32.87000    225.000
33.08000    222.000
33.29000    209.000
33.50000    207.000
33.71000    193.000
33.92000    194.000
34.13000    200.000
34.34000    191.000
34.55000    202.000
34.76000    198.000
34.97000    189.000
35.18000    186.000
35.39000    199.000
35.60000    174.000
35.81000    175.000
36.02000    177.000
36.23000    187.000
36.44000    194.000
36.65000    163.000
36.86000    156.000
37.07000    155.000
37.28000    178.000
37.49000    167.000
37.70000    150.000
37.91000    158.000
38.12000    153.000
38.33000    138.000
38.54000    139.000
38.75000    153.000
38.96000    138.000
39.17000    154.000
39.38000    138.000
39.59000    141.000
39.80000    148.000
40.01000    147.000
40.22000    137.000
40.43000    151.000
40.64000    128.000
40.85000    146.000
41.06000    153.000
41.27000    150.000
41.48000    144.000
41.69000    123.000
41.90000    156.000
42.11000    115.000
42.32000    137.000
42.53000    149.000
42.74000    152.000
42.95000    138.000
43.16000    127.000
43.37000    153.000
43.58000    144.000
43.79000    127.000
44.00000    151.000
44.21000    144.000
44.42000    144.000
44.63000    163.000
44.84000    130.000
45.05000    135.000
45.26000    127.000
45.47000    132.000
45.68000    139.000
45.89000    116.000
46.10000    136.000
46.31000    149.000
46.52000    113.000
46.73000    122.000
46.94000    114.000
47.15000    114.000
47.36000    103.000
47.57000    118.000
47.78000    118.000
47.99000    108.000
48.20000    106.000
48.41000    113.000
48.62000    97.000
48.83000    104.000
49.04000    104.000
49.25000    116.000
49.46000    109.000
49.67000    117.000
49.88000    100.000
50.09000    128.000
50.30000    101.000
50.51000    113.000
50.72000    98.000
50.93000    119.000
51.14000    106.000
51.35000    116.000
51.56000    106.000
51.77000    109.000
51.98000    110.000
52.19000    106.000
52.40000    109.000
52.61000    108.000
52.82000    107.000
53.03000    108.000
53.24000    89.000
53.45000    94.000
53.66000    94.000
53.87000    95.000
54.08000    101.000
54.29000    90.000
54.50000    126.000
54.71000    112.000
54.92000    98.000
55.13000    102.000
55.34000    105.000
55.55000    94.000
55.76000    95.000
55.97000    101.000
56.18000    102.000
56.39000    98.000
56.60000    101.000
56.81000    92.000
57.02000    105.000
57.23000    126.000
57.44000    95.000
57.65000    94.000
57.86000    94.000
58.07000    99.000
58.28000    106.000
58.49000    88.000
58.70000    103.000
58.91000    92.000
59.12000    82.000
59.33000    82.000
59.54000    91.000
59.75000    102.000
59.96000    91.000
60.17000    92.000
60.38000    80.000
60.59000    90.000
60.80000    90.000
61.01000    107.000
61.22000    89.000
61.43000    94.000
61.64000    97.000
61.85000    89.000
61.98500    94.000