File: ISoD/xrd_data/HSC062.xy
2.00000 0.000
2.21000 2.000
2.42000 1.000
2.63000 2.000
2.84000 0.000
3.05000 14.000
3.26000 91.000
3.47000 88.000
3.68000 108.000
3.89000 123.000
4.10000 132.000
4.31000 136.000
4.52000 144.000
4.73000 135.000
4.94000 139.000
5.15000 167.000
5.36000 149.000
5.57000 163.000
5.78000 170.000
5.99000 181.000
6.20000 172.000
6.41000 185.000
6.62000 183.000
6.83000 212.000
7.04000 270.000
7.25000 659.000
7.46000 250.000
7.67000 234.000
7.88000 204.000
8.09000 280.000
8.30000 398.000
8.51000 691.000
8.72000 546.000
8.93000 432.000
9.14000 233.000
9.35000 226.000
9.56000 234.000
9.77000 231.000
9.98000 389.000
10.19000 222.000
10.40000 192.000
10.61000 224.000
10.82000 216.000
11.03000 207.000
11.24000 199.000
11.45000 206.000
11.66000 218.000
11.87000 178.000
12.08000 213.000
12.29000 230.000
12.50000 260.000
12.71000 237.000
12.92000 204.000
13.13000 223.000
13.34000 238.000
13.55000 221.000
13.76000 208.000
13.97000 217.000
14.18000 221.000
14.39000 256.000
14.60000 259.000
14.81000 245.000
15.02000 226.000
15.23000 218.000
15.44000 227.000
15.65000 245.000
15.86000 243.000
16.07000 216.000
16.28000 224.000
16.49000 223.000
16.70000 245.000
16.91000 249.000
17.12000 231.000
17.33000 215.000
17.54000 228.000
17.75000 247.000
17.96000 246.000
18.17000 231.000
18.38000 253.000
18.59000 263.000
18.80000 231.000
19.01000 254.000
19.22000 261.000
19.43000 238.000
19.64000 253.000
19.85000 256.000
20.06000 286.000
20.27000 297.000
20.48000 272.000
20.69000 321.000
20.90000 298.000
21.11000 358.000
21.32000 314.000
21.53000 334.000
21.74000 299.000
21.95000 325.000
22.16000 296.000
22.37000 325.000
22.58000 436.000
22.79000 402.000
23.00000 345.000
23.21000 390.000
23.42000 331.000
23.63000 317.000
23.84000 319.000
24.05000 302.000
24.26000 376.000
24.47000 386.000
24.68000 324.000
24.89000 407.000
25.10000 408.000
25.31000 346.000
25.52000 361.000
25.73000 377.000
25.94000 363.000
26.15000 414.000
26.36000 488.000
26.57000 445.000
26.78000 669.000
26.99000 777.000
27.20000 736.000
27.41000 944.000
27.62000 1076.000
27.83000 947.000
28.04000 967.000
28.25000 1011.000
28.46000 688.000
28.67000 905.000
28.88000 704.000
29.09000 733.000
29.30000 779.000
29.51000 626.000
29.72000 535.000
29.93000 507.000
30.14000 428.000
30.35000 450.000
30.56000 472.000
30.77000 623.000
30.98000 557.000
31.19000 473.000
31.40000 477.000
31.61000 436.000
31.82000 462.000
32.03000 420.000
32.24000 417.000
32.45000 340.000
32.66000 319.000
32.87000 313.000
33.08000 343.000
33.29000 335.000
33.50000 346.000
33.71000 333.000
33.92000 337.000
34.13000 275.000
34.34000 260.000
34.55000 238.000
34.76000 268.000
34.97000 314.000
35.18000 322.000
35.39000 314.000
35.60000 273.000
35.81000 271.000
36.02000 257.000
36.23000 260.000
36.44000 258.000
36.65000 238.000
36.86000 249.000
37.07000 256.000
37.28000 254.000
37.49000 291.000
37.70000 307.000
37.91000 322.000
38.12000 297.000
38.33000 256.000
38.54000 275.000
38.75000 304.000
38.96000 259.000
39.17000 274.000
39.38000 285.000
39.59000 280.000
39.80000 277.000
40.01000 227.000
40.22000 252.000
40.43000 295.000
40.64000 248.000
40.85000 266.000
41.06000 248.000
41.27000 257.000
41.48000 271.000
41.69000 270.000
41.90000 245.000
42.11000 218.000
42.32000 265.000
42.53000 263.000
42.74000 244.000
42.95000 250.000
43.16000 236.000
43.37000 226.000
43.58000 258.000
43.79000 220.000
44.00000 197.000
44.21000 230.000
44.42000 210.000
44.63000 211.000
44.84000 201.000
45.05000 213.000
45.26000 201.000
45.47000 217.000
45.68000 245.000
45.89000 236.000
46.10000 237.000
46.31000 234.000
46.52000 238.000
46.73000 189.000
46.94000 168.000
47.15000 179.000
47.36000 158.000
47.57000 143.000
47.78000 157.000
47.99000 176.000
48.20000 193.000
48.41000 199.000
48.62000 212.000
48.83000 207.000
49.04000 192.000
49.25000 183.000
49.46000 205.000
49.67000 168.000
49.88000 181.000
50.09000 180.000
50.30000 144.000
50.51000 151.000
50.72000 170.000
50.93000 163.000
51.14000 163.000
51.35000 157.000
51.56000 167.000
51.77000 157.000
51.98000 156.000
52.19000 153.000
52.40000 164.000
52.61000 143.000
52.82000 154.000
53.03000 159.000
53.24000 140.000
53.45000 147.000
53.66000 153.000
53.87000 159.000
54.08000 180.000
54.29000 149.000
54.50000 154.000
54.71000 172.000
54.92000 173.000
55.13000 159.000
55.34000 181.000
55.55000 189.000
55.76000 170.000
55.97000 175.000
56.18000 209.000
56.39000 188.000
56.60000 171.000
56.81000 163.000
57.02000 161.000
57.23000 149.000
57.44000 146.000
57.65000 158.000
57.86000 151.000
58.07000 175.000
58.28000 149.000
58.49000 163.000
58.70000 144.000
58.91000 133.000
59.12000 146.000
59.33000 155.000
59.54000 149.000
59.75000 149.000
59.96000 154.000
60.17000 161.000
60.38000 162.000
60.59000 151.000
60.80000 149.000
61.01000 147.000
61.22000 151.000
61.43000 155.000
61.64000 124.000
61.85000 137.000
61.98500 140.000