File: ISoD/xrd_data/HSC005_range_2.xy
2.00000 321.000
2.21000 242.000
2.42000 214.000
2.63000 196.000
2.84000 188.000
3.05000 176.000
3.26000 150.000
3.47000 179.000
3.68000 147.000
3.89000 175.000
4.10000 151.000
4.31000 173.000
4.52000 157.000
4.73000 150.000
4.94000 155.000
5.15000 165.000
5.36000 171.000
5.57000 162.000
5.78000 184.000
5.99000 173.000
6.20000 174.000
6.41000 177.000
6.62000 169.000
6.83000 160.000
7.04000 162.000
7.25000 163.000
7.46000 161.000
7.67000 161.000
7.88000 163.000
8.09000 158.000
8.30000 152.000
8.51000 152.000
8.72000 164.000
8.93000 138.000
9.14000 154.000
9.35000 172.000
9.56000 173.000
9.77000 175.000
9.98000 164.000
10.19000 201.000
10.40000 178.000
10.61000 184.000
10.82000 185.000
11.03000 165.000
11.24000 162.000
11.45000 159.000
11.66000 149.000
11.87000 200.000
12.08000 485.000
12.29000 194.000
12.50000 175.000
12.71000 179.000
12.92000 179.000
13.13000 177.000
13.34000 170.000
13.55000 154.000
13.76000 141.000
13.97000 179.000
14.18000 191.000
14.39000 173.000
14.60000 181.000
14.81000 182.000
15.02000 191.000
15.23000 163.000
15.44000 191.000
15.65000 166.000
15.86000 186.000
16.07000 178.000
16.28000 182.000
16.49000 185.000
16.70000 178.000
16.91000 197.000
17.12000 188.000
17.33000 194.000
17.54000 191.000
17.75000 206.000
17.96000 182.000
18.17000 186.000
18.38000 218.000
18.59000 198.000
18.80000 224.000
19.01000 230.000
19.22000 215.000
19.43000 211.000
19.64000 205.000
19.85000 205.000
20.06000 227.000
20.27000 214.000
20.48000 222.000
20.69000 252.000
20.90000 2363.000
21.11000 275.000
21.32000 258.000
21.53000 228.000
21.74000 237.000
21.95000 242.000
22.16000 240.000
22.37000 224.000
22.58000 232.000
22.79000 219.000
23.00000 250.000
23.21000 231.000
23.42000 235.000
23.63000 222.000
23.84000 258.000
24.05000 323.000
24.26000 1483.000
24.47000 400.000
24.68000 312.000
24.89000 296.000
25.10000 684.000
25.31000 484.000
25.52000 324.000
25.73000 308.000
25.94000 280.000
26.15000 312.000
26.36000 301.000
26.57000 329.000
26.78000 342.000
26.99000 347.000
27.20000 377.000
27.41000 397.000
27.62000 452.000
27.83000 1033.000
28.04000 2525.000
28.25000 586.000
28.46000 369.000
28.67000 298.000
28.88000 249.000
29.09000 251.000
29.30000 244.000
29.51000 246.000
29.72000 228.000
29.93000 224.000
30.14000 197.000
30.35000 219.000
30.56000 242.000
30.77000 210.000
30.98000 198.000
31.19000 194.000
31.40000 195.000
31.61000 207.000
31.82000 191.000
32.03000 239.000
32.24000 2574.000
32.45000 221.000
32.66000 239.000
32.87000 414.000
33.08000 359.000
33.29000 201.000
33.50000 190.000
33.71000 156.000
33.92000 171.000
34.13000 179.000
34.34000 158.000
34.55000 169.000
34.76000 189.000
34.97000 241.000
35.18000 478.000
35.39000 284.000
35.60000 189.000
35.81000 137.000
36.02000 132.000
36.23000 142.000
36.44000 121.000
36.65000 351.000
36.86000 129.000
37.07000 120.000
37.28000 135.000
37.49000 151.000
37.70000 122.000
37.91000 123.000
38.12000 115.000
38.33000 112.000
38.54000 113.000
38.75000 110.000
38.96000 113.000
39.17000 115.000
39.38000 117.000
39.59000 113.000
39.80000 123.000
40.01000 126.000
40.22000 129.000
40.43000 99.000
40.64000 124.000
40.85000 132.000
41.06000 159.000
41.27000 279.000
41.48000 210.000
41.69000 132.000
41.90000 135.000
42.11000 125.000
42.32000 126.000
42.53000 108.000
42.74000 124.000
42.95000 117.000
43.16000 125.000
43.37000 114.000
43.58000 124.000
43.79000 110.000
44.00000 131.000
44.21000 139.000
44.42000 637.000
44.63000 244.000
44.84000 224.000
45.05000 287.000
45.26000 179.000
45.47000 134.000
45.68000 118.000
45.89000 130.000
46.10000 140.000
46.31000 168.000
46.52000 132.000
46.73000 118.000
46.94000 103.000
47.15000 124.000
47.36000 123.000
47.57000 113.000
47.78000 118.000
47.99000 101.000
48.20000 94.000
48.41000 112.000
48.62000 109.000
48.83000 106.000
49.04000 122.000
49.25000 109.000
49.46000 117.000
49.67000 244.000
49.88000 218.000
50.09000 412.000
50.30000 274.000
50.51000 170.000
50.72000 132.000
50.93000 121.000
51.14000 115.000
51.35000 159.000
51.56000 237.000
51.77000 320.000
51.98000 165.000
52.19000 131.000
52.40000 112.000
52.61000 111.000
52.82000 121.000
53.03000 116.000
53.24000 133.000
53.45000 118.000
53.66000 104.000
53.87000 98.000
54.08000 110.000
54.29000 167.000
54.50000 265.000
54.71000 114.000
54.92000 105.000
55.13000 103.000
55.34000 122.000
55.55000 111.000
55.76000 115.000
55.97000 122.000
56.18000 167.000
56.39000 188.000
56.60000 171.000
56.81000 115.000
57.02000 107.000
57.23000 108.000
57.44000 191.000
57.65000 142.000
57.86000 139.000
58.07000 131.000
58.28000 117.000
58.49000 96.000
58.70000 90.000
58.91000 100.000
59.12000 100.000
59.33000 89.000
59.54000 99.000
59.75000 103.000
59.96000 101.000
60.17000 104.000
60.38000 104.000
60.59000 93.000
60.80000 103.000
61.01000 114.000
61.22000 97.000
61.43000 96.000
61.64000 103.000
61.85000 108.000
61.98500 132.000