File: ISoD/xrd_data/HSC005III_range_1.xy
2.00000 378.000
2.21000 292.000
2.42000 265.000
2.63000 240.000
2.84000 175.000
3.05000 198.000
3.26000 196.000
3.47000 185.000
3.68000 193.000
3.89000 176.000
4.10000 193.000
4.31000 174.000
4.52000 173.000
4.73000 180.000
4.94000 168.000
5.15000 189.000
5.36000 189.000
5.57000 181.000
5.78000 175.000
5.99000 177.000
6.20000 178.000
6.41000 175.000
6.62000 171.000
6.83000 178.000
7.04000 182.000
7.25000 161.000
7.46000 193.000
7.67000 187.000
7.88000 184.000
8.09000 182.000
8.30000 161.000
8.51000 169.000
8.72000 185.000
8.93000 159.000
9.14000 184.000
9.35000 158.000
9.56000 159.000
9.77000 168.000
9.98000 178.000
10.19000 189.000
10.40000 176.000
10.61000 162.000
10.82000 168.000
11.03000 180.000
11.24000 196.000
11.45000 160.000
11.66000 162.000
11.87000 367.000
12.08000 968.000
12.29000 232.000
12.50000 208.000
12.71000 204.000
12.92000 207.000
13.13000 181.000
13.34000 188.000
13.55000 182.000
13.76000 183.000
13.97000 196.000
14.18000 194.000
14.39000 180.000
14.60000 202.000
14.81000 185.000
15.02000 172.000
15.23000 206.000
15.44000 191.000
15.65000 192.000
15.86000 179.000
16.07000 196.000
16.28000 181.000
16.49000 194.000
16.70000 213.000
16.91000 220.000
17.12000 216.000
17.33000 226.000
17.54000 228.000
17.75000 248.000
17.96000 353.000
18.17000 288.000
18.38000 260.000
18.59000 257.000
18.80000 230.000
19.01000 248.000
19.22000 218.000
19.43000 221.000
19.64000 225.000
19.85000 242.000
20.06000 242.000
20.27000 246.000
20.48000 246.000
20.69000 304.000
20.90000 478.000
21.11000 312.000
21.32000 278.000
21.53000 274.000
21.74000 267.000
21.95000 244.000
22.16000 263.000
22.37000 270.000
22.58000 278.000
22.79000 282.000
23.00000 257.000
23.21000 299.000
23.42000 287.000
23.63000 274.000
23.84000 267.000
24.05000 281.000
24.26000 400.000
24.47000 316.000
24.68000 405.000
24.89000 518.000
25.10000 417.000
25.31000 354.000
25.52000 343.000
25.73000 319.000
25.94000 330.000
26.15000 330.000
26.36000 325.000
26.57000 402.000
26.78000 520.000
26.99000 870.000
27.20000 712.000
27.41000 627.000
27.62000 890.000
27.83000 773.000
28.04000 536.000
28.25000 406.000
28.46000 353.000
28.67000 334.000
28.88000 334.000
29.09000 311.000
29.30000 335.000
29.51000 405.000
29.72000 398.000
29.93000 328.000
30.14000 263.000
30.35000 224.000
30.56000 227.000
30.77000 220.000
30.98000 223.000
31.19000 212.000
31.40000 199.000
31.61000 184.000
31.82000 213.000
32.03000 334.000
32.24000 361.000
32.45000 221.000
32.66000 192.000
32.87000 182.000
33.08000 192.000
33.29000 171.000
33.50000 194.000
33.71000 172.000
33.92000 175.000
34.13000 196.000
34.34000 205.000
34.55000 166.000
34.76000 197.000
34.97000 208.000
35.18000 181.000
35.39000 154.000
35.60000 138.000
35.81000 156.000
36.02000 154.000
36.23000 126.000
36.44000 140.000
36.65000 141.000
36.86000 142.000
37.07000 127.000
37.28000 137.000
37.49000 131.000
37.70000 127.000
37.91000 124.000
38.12000 131.000
38.33000 129.000
38.54000 128.000
38.75000 117.000
38.96000 129.000
39.17000 137.000
39.38000 146.000
39.59000 139.000
39.80000 150.000
40.01000 155.000
40.22000 138.000
40.43000 129.000
40.64000 107.000
40.85000 131.000
41.06000 124.000
41.27000 127.000
41.48000 109.000
41.69000 127.000
41.90000 135.000
42.11000 146.000
42.32000 163.000
42.53000 169.000
42.74000 172.000
42.95000 146.000
43.16000 140.000
43.37000 141.000
43.58000 131.000
43.79000 144.000
44.00000 131.000
44.21000 148.000
44.42000 207.000
44.63000 219.000
44.84000 259.000
45.05000 213.000
45.26000 161.000
45.47000 125.000
45.68000 131.000
45.89000 116.000
46.10000 106.000
46.31000 123.000
46.52000 121.000
46.73000 132.000
46.94000 126.000
47.15000 116.000
47.36000 95.000
47.57000 125.000
47.78000 99.000
47.99000 113.000
48.20000 91.000
48.41000 106.000
48.62000 101.000
48.83000 104.000
49.04000 112.000
49.25000 121.000
49.46000 106.000
49.67000 106.000
49.88000 98.000
50.09000 93.000
50.30000 96.000
50.51000 114.000
50.72000 106.000
50.93000 119.000
51.14000 101.000
51.35000 118.000
51.56000 95.000
51.77000 105.000
51.98000 96.000
52.19000 112.000
52.40000 95.000
52.61000 97.000
52.82000 97.000
53.03000 96.000
53.24000 107.000
53.45000 101.000
53.66000 113.000
53.87000 92.000
54.08000 94.000
54.29000 105.000
54.50000 101.000
54.71000 98.000
54.92000 113.000
55.13000 94.000
55.34000 99.000
55.55000 106.000
55.76000 111.000
55.97000 132.000
56.18000 137.000
56.39000 146.000
56.60000 122.000
56.81000 109.000
57.02000 124.000
57.23000 124.000
57.44000 119.000
57.65000 90.000
57.86000 92.000
58.07000 91.000
58.28000 85.000
58.49000 102.000
58.70000 87.000
58.91000 98.000
59.12000 96.000
59.33000 102.000
59.54000 86.000
59.75000 94.000
59.96000 102.000
60.17000 104.000
60.38000 91.000
60.59000 85.000
60.80000 87.000
61.01000 101.000
61.22000 72.000
61.43000 80.000
61.64000 92.000
61.85000 91.000
61.98500 97.000