File: ISoD/xrd_data/HSC091.xy
2.00000 1.000
2.21000 0.000
2.42000 1.000
2.63000 1.000
2.84000 1.000
3.05000 1.000
3.26000 27.000
3.47000 37.000
3.68000 33.000
3.89000 35.000
4.10000 38.000
4.31000 42.000
4.52000 45.000
4.73000 32.000
4.94000 42.000
5.15000 50.000
5.36000 40.000
5.57000 43.000
5.78000 43.000
5.99000 44.000
6.20000 43.000
6.41000 42.000
6.62000 45.000
6.83000 43.000
7.04000 51.000
7.25000 48.000
7.46000 47.000
7.67000 53.000
7.88000 50.000
8.09000 56.000
8.30000 53.000
8.51000 51.000
8.72000 56.000
8.93000 54.000
9.14000 50.000
9.35000 61.000
9.56000 68.000
9.77000 58.000
9.98000 58.000
10.19000 51.000
10.40000 41.000
10.61000 45.000
10.82000 48.000
11.03000 54.000
11.24000 68.000
11.45000 249.000
11.66000 59.000
11.87000 53.000
12.08000 53.000
12.29000 58.000
12.50000 67.000
12.71000 54.000
12.92000 57.000
13.13000 48.000
13.34000 62.000
13.55000 67.000
13.76000 67.000
13.97000 49.000
14.18000 73.000
14.39000 67.000
14.60000 64.000
14.81000 58.000
15.02000 61.000
15.23000 82.000
15.44000 116.000
15.65000 62.000
15.86000 55.000
16.07000 62.000
16.28000 74.000
16.49000 62.000
16.70000 61.000
16.91000 65.000
17.12000 68.000
17.33000 56.000
17.54000 63.000
17.75000 70.000
17.96000 68.000
18.17000 72.000
18.38000 105.000
18.59000 57.000
18.80000 64.000
19.01000 78.000
19.22000 71.000
19.43000 66.000
19.64000 66.000
19.85000 70.000
20.06000 73.000
20.27000 89.000
20.48000 80.000
20.69000 81.000
20.90000 78.000
21.11000 107.000
21.32000 81.000
21.53000 95.000
21.74000 118.000
21.95000 106.000
22.16000 85.000
22.37000 93.000
22.58000 202.000
22.79000 113.000
23.00000 1696.000
23.21000 126.000
23.42000 110.000
23.63000 142.000
23.84000 121.000
24.05000 131.000
24.26000 131.000
24.47000 119.000
24.68000 92.000
24.89000 349.000
25.10000 108.000
25.31000 99.000
25.52000 106.000
25.73000 316.000
25.94000 126.000
26.15000 118.000
26.36000 132.000
26.57000 188.000
26.78000 163.000
26.99000 147.000
27.20000 167.000
27.41000 182.000
27.62000 689.000
27.83000 282.000
28.04000 177.000
28.25000 133.000
28.46000 112.000
28.67000 664.000
28.88000 432.000
29.09000 132.000
29.30000 108.000
29.51000 105.000
29.72000 105.000
29.93000 102.000
30.14000 89.000
30.35000 101.000
30.56000 74.000
30.77000 102.000
30.98000 89.000
31.19000 99.000
31.40000 492.000
31.61000 77.000
31.82000 90.000
32.03000 80.000
32.24000 82.000
32.45000 91.000
32.66000 80.000
32.87000 83.000
33.08000 83.000
33.29000 115.000
33.50000 86.000
33.71000 78.000
33.92000 71.000
34.13000 472.000
34.34000 77.000
34.55000 81.000
34.76000 109.000
34.97000 107.000
35.18000 81.000
35.39000 75.000
35.60000 94.000
35.81000 243.000
36.02000 129.000
36.23000 80.000
36.44000 72.000
36.65000 83.000
36.86000 84.000
37.07000 340.000
37.28000 106.000
37.49000 78.000
37.70000 109.000
37.91000 200.000
38.12000 75.000
38.33000 67.000
38.54000 62.000
38.75000 80.000
38.96000 67.000
39.17000 67.000
39.38000 212.000
39.59000 67.000
39.80000 56.000
40.01000 70.000
40.22000 66.000
40.43000 77.000
40.64000 128.000
40.85000 69.000
41.06000 66.000
41.27000 62.000
41.48000 65.000
41.69000 65.000
41.90000 61.000
42.11000 129.000
42.32000 57.000
42.53000 95.000
42.74000 340.000
42.95000 76.000
43.16000 96.000
43.37000 70.000
43.58000 78.000
43.79000 72.000
44.00000 81.000
44.21000 98.000
44.42000 70.000
44.63000 82.000
44.84000 84.000
45.05000 94.000
45.26000 92.000
45.47000 97.000
45.68000 94.000
45.89000 62.000
46.10000 74.000
46.31000 144.000
46.52000 76.000
46.73000 54.000
46.94000 80.000
47.15000 103.000
47.36000 83.000
47.57000 122.000
47.78000 274.000
47.99000 73.000
48.20000 77.000
48.41000 67.000
48.62000 71.000
48.83000 69.000
49.04000 95.000
49.25000 80.000
49.46000 123.000
49.67000 105.000
49.88000 167.000
50.09000 99.000
50.30000 74.000
50.51000 77.000
50.72000 72.000
50.93000 69.000
51.14000 243.000
51.35000 106.000
51.56000 85.000
51.77000 86.000
51.98000 210.000
52.19000 88.000
52.40000 76.000
52.61000 81.000
52.82000 104.000
53.03000 269.000
53.24000 153.000
53.45000 79.000
53.66000 89.000
53.87000 177.000
54.08000 104.000
54.29000 87.000
54.50000 78.000
54.71000 70.000
54.92000 87.000
55.13000 125.000
55.34000 114.000
55.55000 84.000
55.76000 207.000
55.97000 94.000
56.18000 85.000
56.39000 88.000
56.60000 211.000
56.81000 131.000
57.02000 95.000
57.23000 168.000
57.44000 139.000
57.65000 113.000
57.86000 101.000
58.07000 80.000
58.28000 85.000
58.49000 85.000
58.70000 69.000
58.91000 94.000
59.12000 119.000
59.33000 78.000
59.54000 85.000
59.75000 98.000
59.96000 122.000
60.17000 108.000
60.38000 119.000
60.59000 101.000
60.80000 81.000
61.01000 89.000
61.22000 71.000
61.43000 95.000
61.64000 132.000
61.85000 86.000
61.98500 73.000