File: ISoD/xrd_data/HSC026_nach410C_range_1.xy
2.00000 748.000
2.21000 537.000
2.42000 420.000
2.63000 342.000
2.84000 302.000
3.05000 273.000
3.26000 241.000
3.47000 223.000
3.68000 207.000
3.89000 204.000
4.10000 180.000
4.31000 190.000
4.52000 177.000
4.73000 168.000
4.94000 188.000
5.15000 165.000
5.36000 184.000
5.57000 170.000
5.78000 181.000
5.99000 167.000
6.20000 180.000
6.41000 174.000
6.62000 172.000
6.83000 162.000
7.04000 191.000
7.25000 168.000
7.46000 186.000
7.67000 167.000
7.88000 192.000
8.09000 181.000
8.30000 195.000
8.51000 222.000
8.72000 231.000
8.93000 187.000
9.14000 189.000
9.35000 181.000
9.56000 187.000
9.77000 183.000
9.98000 188.000
10.19000 193.000
10.40000 182.000
10.61000 183.000
10.82000 194.000
11.03000 241.000
11.24000 278.000
11.45000 508.000
11.66000 574.000
11.87000 398.000
12.08000 252.000
12.29000 200.000
12.50000 174.000
12.71000 195.000
12.92000 234.000
13.13000 212.000
13.34000 211.000
13.55000 183.000
13.76000 179.000
13.97000 181.000
14.18000 161.000
14.39000 179.000
14.60000 162.000
14.81000 178.000
15.02000 166.000
15.23000 170.000
15.44000 200.000
15.65000 175.000
15.86000 179.000
16.07000 171.000
16.28000 198.000
16.49000 174.000
16.70000 160.000
16.91000 188.000
17.12000 164.000
17.33000 187.000
17.54000 178.000
17.75000 189.000
17.96000 184.000
18.17000 189.000
18.38000 208.000
18.59000 199.000
18.80000 191.000
19.01000 184.000
19.22000 229.000
19.43000 219.000
19.64000 219.000
19.85000 213.000
20.06000 215.000
20.27000 215.000
20.48000 209.000
20.69000 224.000
20.90000 216.000
21.11000 219.000
21.32000 214.000
21.53000 223.000
21.74000 233.000
21.95000 212.000
22.16000 216.000
22.37000 219.000
22.58000 225.000
22.79000 242.000
23.00000 244.000
23.21000 265.000
23.42000 267.000
23.63000 251.000
23.84000 252.000
24.05000 258.000
24.26000 280.000
24.47000 285.000
24.68000 314.000
24.89000 310.000
25.10000 375.000
25.31000 432.000
25.52000 561.000
25.73000 519.000
25.94000 360.000
26.15000 366.000
26.36000 331.000
26.57000 334.000
26.78000 379.000
26.99000 405.000
27.20000 540.000
27.41000 605.000
27.62000 542.000
27.83000 351.000
28.04000 277.000
28.25000 253.000
28.46000 258.000
28.67000 235.000
28.88000 209.000
29.09000 225.000
29.30000 212.000
29.51000 207.000
29.72000 217.000
29.93000 206.000
30.14000 223.000
30.35000 231.000
30.56000 227.000
30.77000 233.000
30.98000 178.000
31.19000 182.000
31.40000 183.000
31.61000 177.000
31.82000 177.000
32.03000 184.000
32.24000 176.000
32.45000 132.000
32.66000 157.000
32.87000 153.000
33.08000 139.000
33.29000 147.000
33.50000 155.000
33.71000 167.000
33.92000 129.000
34.13000 143.000
34.34000 125.000
34.55000 142.000
34.76000 155.000
34.97000 133.000
35.18000 120.000
35.39000 122.000
35.60000 136.000
35.81000 113.000
36.02000 99.000
36.23000 124.000
36.44000 118.000
36.65000 108.000
36.86000 99.000
37.07000 113.000
37.28000 114.000
37.49000 100.000
37.70000 95.000
37.91000 123.000
38.12000 97.000
38.33000 101.000
38.54000 99.000
38.75000 110.000
38.96000 120.000
39.17000 106.000
39.38000 99.000
39.59000 109.000
39.80000 116.000
40.01000 115.000
40.22000 118.000
40.43000 107.000
40.64000 119.000
40.85000 119.000
41.06000 135.000
41.27000 119.000
41.48000 113.000
41.69000 94.000
41.90000 96.000
42.11000 115.000
42.32000 117.000
42.53000 84.000
42.74000 98.000
42.95000 102.000
43.16000 110.000
43.37000 87.000
43.58000 118.000
43.79000 109.000
44.00000 103.000
44.21000 100.000
44.42000 95.000
44.63000 92.000
44.84000 98.000
45.05000 91.000
45.26000 99.000
45.47000 101.000
45.68000 98.000
45.89000 92.000
46.10000 111.000
46.31000 97.000
46.52000 97.000
46.73000 87.000
46.94000 101.000
47.15000 98.000
47.36000 83.000
47.57000 99.000
47.78000 93.000
47.99000 78.000
48.20000 94.000
48.41000 84.000
48.62000 86.000
48.83000 81.000
49.04000 79.000
49.25000 92.000
49.46000 90.000
49.67000 81.000
49.88000 81.000
50.09000 78.000
50.30000 82.000
50.51000 78.000
50.72000 100.000
50.93000 68.000
51.14000 77.000
51.35000 73.000
51.56000 74.000
51.77000 84.000
51.98000 87.000
52.19000 93.000
52.40000 87.000
52.61000 90.000
52.82000 81.000
53.03000 73.000
53.24000 88.000
53.45000 87.000
53.66000 87.000
53.87000 83.000
54.08000 71.000
54.29000 85.000
54.50000 88.000
54.71000 69.000
54.92000 77.000
55.13000 88.000
55.34000 73.000
55.55000 53.000
55.76000 82.000
55.97000 83.000
56.18000 75.000
56.39000 80.000
56.60000 84.000
56.81000 79.000
57.02000 60.000
57.23000 69.000
57.44000 76.000
57.65000 75.000
57.86000 66.000
58.07000 78.000
58.28000 70.000
58.49000 68.000
58.70000 75.000
58.91000 79.000
59.12000 76.000
59.33000 77.000
59.54000 79.000
59.75000 77.000
59.96000 79.000
60.17000 65.000
60.38000 84.000
60.59000 73.000
60.80000 55.000
61.01000 79.000
61.22000 73.000
61.43000 67.000
61.64000 58.000
61.85000 77.000
61.98500 71.000