File: ISoD/xrd_data/HSC011_Kap_nicht_hochgenug_gefuelllt.xy
2.00000 1979.000
2.21000 1365.000
2.42000 1095.000
2.63000 861.000
2.84000 692.000
3.05000 588.000
3.26000 496.000
3.47000 457.000
3.68000 420.000
3.89000 373.000
4.10000 328.000
4.31000 284.000
4.52000 317.000
4.73000 292.000
4.94000 278.000
5.15000 283.000
5.36000 269.000
5.57000 253.000
5.78000 269.000
5.99000 255.000
6.20000 268.000
6.41000 236.000
6.62000 251.000
6.83000 243.000
7.04000 233.000
7.25000 235.000
7.46000 244.000
7.67000 234.000
7.88000 224.000
8.09000 222.000
8.30000 215.000
8.51000 241.000
8.72000 244.000
8.93000 222.000
9.14000 229.000
9.35000 211.000
9.56000 243.000
9.77000 206.000
9.98000 234.000
10.19000 216.000
10.40000 221.000
10.61000 243.000
10.82000 210.000
11.03000 230.000
11.24000 240.000
11.45000 247.000
11.66000 267.000
11.87000 322.000
12.08000 339.000
12.29000 329.000
12.50000 296.000
12.71000 272.000
12.92000 275.000
13.13000 258.000
13.34000 241.000
13.55000 235.000
13.76000 246.000
13.97000 232.000
14.18000 242.000
14.39000 220.000
14.60000 247.000
14.81000 230.000
15.02000 234.000
15.23000 239.000
15.44000 229.000
15.65000 226.000
15.86000 255.000
16.07000 256.000
16.28000 240.000
16.49000 266.000
16.70000 237.000
16.91000 258.000
17.12000 228.000
17.33000 242.000
17.54000 261.000
17.75000 284.000
17.96000 264.000
18.17000 272.000
18.38000 266.000
18.59000 283.000
18.80000 274.000
19.01000 267.000
19.22000 278.000
19.43000 289.000
19.64000 291.000
19.85000 322.000
20.06000 304.000
20.27000 288.000
20.48000 309.000
20.69000 332.000
20.90000 321.000
21.11000 310.000
21.32000 323.000
21.53000 328.000
21.74000 314.000
21.95000 280.000
22.16000 322.000
22.37000 326.000
22.58000 331.000
22.79000 340.000
23.00000 331.000
23.21000 338.000
23.42000 334.000
23.63000 351.000
23.84000 372.000
24.05000 375.000
24.26000 333.000
24.47000 350.000
24.68000 377.000
24.89000 357.000
25.10000 364.000
25.31000 372.000
25.52000 370.000
25.73000 332.000
25.94000 375.000
26.15000 383.000
26.36000 362.000
26.57000 412.000
26.78000 416.000
26.99000 475.000
27.20000 488.000
27.41000 599.000
27.62000 611.000
27.83000 497.000
28.04000 437.000
28.25000 394.000
28.46000 387.000
28.67000 324.000
28.88000 336.000
29.09000 311.000
29.30000 308.000
29.51000 313.000
29.72000 280.000
29.93000 300.000
30.14000 295.000
30.35000 264.000
30.56000 258.000
30.77000 253.000
30.98000 271.000
31.19000 256.000
31.40000 259.000
31.61000 276.000
31.82000 269.000
32.03000 274.000
32.24000 265.000
32.45000 243.000
32.66000 269.000
32.87000 220.000
33.08000 205.000
33.29000 218.000
33.50000 233.000
33.71000 196.000
33.92000 220.000
34.13000 200.000
34.34000 191.000
34.55000 177.000
34.76000 190.000
34.97000 189.000
35.18000 186.000
35.39000 203.000
35.60000 175.000
35.81000 184.000
36.02000 161.000
36.23000 172.000
36.44000 178.000
36.65000 175.000
36.86000 172.000
37.07000 178.000
37.28000 145.000
37.49000 149.000
37.70000 164.000
37.91000 155.000
38.12000 150.000
38.33000 153.000
38.54000 142.000
38.75000 158.000
38.96000 147.000
39.17000 144.000
39.38000 138.000
39.59000 157.000
39.80000 142.000
40.01000 138.000
40.22000 134.000
40.43000 160.000
40.64000 144.000
40.85000 142.000
41.06000 139.000
41.27000 144.000
41.48000 153.000
41.69000 144.000
41.90000 170.000
42.11000 151.000
42.32000 149.000
42.53000 176.000
42.74000 161.000
42.95000 176.000
43.16000 137.000
43.37000 167.000
43.58000 148.000
43.79000 136.000
44.00000 153.000
44.21000 129.000
44.42000 146.000
44.63000 132.000
44.84000 149.000
45.05000 140.000
45.26000 123.000
45.47000 125.000
45.68000 141.000
45.89000 116.000
46.10000 146.000
46.31000 149.000
46.52000 135.000
46.73000 116.000
46.94000 127.000
47.15000 130.000
47.36000 122.000
47.57000 132.000
47.78000 125.000
47.99000 127.000
48.20000 127.000
48.41000 111.000
48.62000 122.000
48.83000 129.000
49.04000 118.000
49.25000 119.000
49.46000 116.000
49.67000 105.000
49.88000 121.000
50.09000 124.000
50.30000 108.000
50.51000 107.000
50.72000 111.000
50.93000 107.000
51.14000 116.000
51.35000 112.000
51.56000 113.000
51.77000 99.000
51.98000 101.000
52.19000 108.000
52.40000 108.000
52.61000 112.000
52.82000 111.000
53.03000 119.000
53.24000 97.000
53.45000 100.000
53.66000 118.000
53.87000 112.000
54.08000 112.000
54.29000 114.000
54.50000 114.000
54.71000 120.000
54.92000 101.000
55.13000 121.000
55.34000 102.000
55.55000 119.000
55.76000 111.000
55.97000 102.000
56.18000 122.000
56.39000 106.000
56.60000 114.000
56.81000 105.000
57.02000 125.000
57.23000 140.000
57.44000 111.000
57.65000 105.000
57.86000 109.000
58.07000 108.000
58.28000 101.000
58.49000 117.000
58.70000 113.000
58.91000 113.000
59.12000 120.000
59.33000 90.000
59.54000 103.000
59.75000 92.000
59.96000 110.000
60.17000 108.000
60.38000 81.000
60.59000 112.000
60.80000 94.000
61.01000 110.000
61.22000 96.000
61.43000 107.000
61.64000 104.000
61.85000 101.000
61.98500 105.000