File: ISoD/xrd_data/HSC072.xy
2.00000 7.000
2.21000 3.000
2.42000 3.000
2.63000 6.000
2.84000 3.000
3.05000 4.000
3.26000 129.000
3.47000 270.000
3.68000 303.000
3.89000 262.000
4.10000 288.000
4.31000 283.000
4.52000 279.000
4.73000 294.000
4.94000 298.000
5.15000 298.000
5.36000 313.000
5.57000 294.000
5.78000 328.000
5.99000 342.000
6.20000 336.000
6.41000 334.000
6.62000 347.000
6.83000 353.000
7.04000 378.000
7.25000 343.000
7.46000 382.000
7.67000 348.000
7.88000 371.000
8.09000 378.000
8.30000 394.000
8.51000 391.000
8.72000 385.000
8.93000 386.000
9.14000 378.000
9.35000 364.000
9.56000 391.000
9.77000 393.000
9.98000 396.000
10.19000 403.000
10.40000 379.000
10.61000 402.000
10.82000 401.000
11.03000 406.000
11.24000 396.000
11.45000 397.000
11.66000 401.000
11.87000 406.000
12.08000 377.000
12.29000 432.000
12.50000 399.000
12.71000 387.000
12.92000 438.000
13.13000 389.000
13.34000 407.000
13.55000 385.000
13.76000 417.000
13.97000 381.000
14.18000 413.000
14.39000 405.000
14.60000 383.000
14.81000 361.000
15.02000 421.000
15.23000 396.000
15.44000 414.000
15.65000 386.000
15.86000 418.000
16.07000 423.000
16.28000 414.000
16.49000 424.000
16.70000 418.000
16.91000 414.000
17.12000 388.000
17.33000 411.000
17.54000 393.000
17.75000 430.000
17.96000 392.000
18.17000 412.000
18.38000 430.000
18.59000 454.000
18.80000 408.000
19.01000 431.000
19.22000 431.000
19.43000 437.000
19.64000 431.000
19.85000 413.000
20.06000 429.000
20.27000 416.000
20.48000 426.000
20.69000 448.000
20.90000 413.000
21.11000 432.000
21.32000 424.000
21.53000 410.000
21.74000 459.000
21.95000 419.000
22.16000 413.000
22.37000 411.000
22.58000 435.000
22.79000 441.000
23.00000 428.000
23.21000 409.000
23.42000 430.000
23.63000 441.000
23.84000 384.000
24.05000 400.000
24.26000 456.000
24.47000 383.000
24.68000 434.000
24.89000 423.000
25.10000 409.000
25.31000 425.000
25.52000 465.000
25.73000 470.000
25.94000 434.000
26.15000 437.000
26.36000 419.000
26.57000 399.000
26.78000 418.000
26.99000 426.000
27.20000 464.000
27.41000 465.000
27.62000 473.000
27.83000 451.000
28.04000 428.000
28.25000 424.000
28.46000 394.000
28.67000 383.000
28.88000 358.000
29.09000 411.000
29.30000 358.000
29.51000 357.000
29.72000 339.000
29.93000 299.000
30.14000 345.000
30.35000 311.000
30.56000 332.000
30.77000 319.000
30.98000 314.000
31.19000 311.000
31.40000 299.000
31.61000 313.000
31.82000 289.000
32.03000 292.000
32.24000 293.000
32.45000 286.000
32.66000 283.000
32.87000 280.000
33.08000 259.000
33.29000 263.000
33.50000 249.000
33.71000 219.000
33.92000 243.000
34.13000 240.000
34.34000 250.000
34.55000 229.000
34.76000 227.000
34.97000 228.000
35.18000 223.000
35.39000 219.000
35.60000 220.000
35.81000 234.000
36.02000 196.000
36.23000 221.000
36.44000 208.000
36.65000 190.000
36.86000 193.000
37.07000 192.000
37.28000 179.000
37.49000 192.000
37.70000 188.000
37.91000 184.000
38.12000 180.000
38.33000 170.000
38.54000 198.000
38.75000 177.000
38.96000 159.000
39.17000 201.000
39.38000 166.000
39.59000 174.000
39.80000 141.000
40.01000 186.000
40.22000 168.000
40.43000 182.000
40.64000 153.000
40.85000 176.000
41.06000 160.000
41.27000 163.000
41.48000 147.000
41.69000 162.000
41.90000 135.000
42.11000 175.000
42.32000 167.000
42.53000 138.000
42.74000 162.000
42.95000 146.000
43.16000 168.000
43.37000 160.000
43.58000 171.000
43.79000 138.000
44.00000 151.000
44.21000 143.000
44.42000 151.000
44.63000 162.000
44.84000 154.000
45.05000 159.000
45.26000 150.000
45.47000 154.000
45.68000 163.000
45.89000 158.000
46.10000 154.000
46.31000 141.000
46.52000 124.000
46.73000 155.000
46.94000 137.000
47.15000 137.000
47.36000 142.000
47.57000 176.000
47.78000 140.000
47.99000 132.000
48.20000 132.000
48.41000 135.000
48.62000 129.000
48.83000 120.000
49.04000 111.000
49.25000 122.000
49.46000 124.000
49.67000 116.000
49.88000 130.000
50.09000 122.000
50.30000 117.000
50.51000 140.000
50.72000 130.000
50.93000 117.000
51.14000 115.000
51.35000 129.000
51.56000 122.000
51.77000 115.000
51.98000 119.000
52.19000 142.000
52.40000 122.000
52.61000 125.000
52.82000 127.000
53.03000 117.000
53.24000 115.000
53.45000 117.000
53.66000 114.000
53.87000 118.000
54.08000 110.000
54.29000 118.000
54.50000 112.000
54.71000 118.000
54.92000 130.000
55.13000 116.000
55.34000 125.000
55.55000 114.000
55.76000 126.000
55.97000 129.000
56.18000 139.000
56.39000 117.000
56.60000 130.000
56.81000 117.000
57.02000 113.000
57.23000 117.000
57.44000 118.000
57.65000 128.000
57.86000 100.000
58.07000 113.000
58.28000 110.000
58.49000 127.000
58.70000 116.000
58.91000 114.000
59.12000 93.000
59.33000 106.000
59.54000 113.000
59.75000 105.000
59.96000 119.000
60.17000 103.000
60.38000 110.000
60.59000 119.000
60.80000 116.000
61.01000 102.000
61.22000 97.000
61.43000 107.000
61.64000 114.000
61.85000 106.000
61.98500 102.000