File: ISoD/xrd_data/HSC026_nach410C_ranges_combined.xy
2.0 1460.0
2.21 1113.0
2.42 843.0
2.63 682.0
2.84 605.0
3.05 524.0
3.26 466.0
3.47 438.0
3.68 411.0
3.89 401.0
4.1 374.0
4.31 362.0
4.52 353.0
4.73 340.0
4.94 362.0
5.15 329.0
5.36 364.0
5.57 350.0
5.78 382.0
5.99 346.0
6.2 345.0
6.41 341.0
6.62 345.0
6.83 334.0
7.04 348.0
7.25 360.0
7.46 355.0
7.67 337.0
7.88 365.0
8.09 371.0
8.3 386.0
8.51 470.0
8.72 492.0
8.93 387.0
9.14 368.0
9.35 348.0
9.56 353.0
9.77 361.0
9.98 403.0
10.19 373.0
10.4 384.0
10.61 369.0
10.82 380.0
11.03 465.0
11.24 577.0
11.45 1020.0
11.66 1149.0
11.87 812.0
12.08 508.0
12.29 378.0
12.5 352.0
12.71 403.0
12.92 493.0
13.13 460.0
13.34 405.0
13.55 367.0
13.76 374.0
13.97 347.0
14.18 325.0
14.39 352.0
14.6 315.0
14.81 334.0
15.02 329.0
15.23 320.0
15.44 362.0
15.65 341.0
15.86 353.0
16.07 352.0
16.28 386.0
16.49 357.0
16.7 325.0
16.91 352.0
17.12 339.0
17.33 365.0
17.54 348.0
17.75 381.0
17.96 360.0
18.17 378.0
18.38 382.0
18.59 414.0
18.8 366.0
19.01 374.0
19.22 420.0
19.43 423.0
19.64 420.0
19.85 435.0
20.06 434.0
20.27 431.0
20.48 435.0
20.69 455.0
20.9 416.0
21.11 441.0
21.32 428.0
21.53 450.0
21.74 459.0
21.95 440.0
22.16 443.0
22.37 437.0
22.58 451.0
22.79 475.0
23.0 477.0
23.21 512.0
23.42 514.0
23.63 500.0
23.84 527.0
24.05 521.0
24.26 558.0
24.47 562.0
24.68 604.0
24.89 610.0
25.1 772.0
25.31 848.0
25.52 1134.0
25.73 1046.0
25.94 715.0
26.15 711.0
26.36 677.0
26.57 700.0
26.78 752.0
26.99 804.0
27.2 1044.0
27.41 1209.0
27.62 1106.0
27.83 687.0
28.04 549.0
28.25 512.0
28.46 514.0
28.67 440.0
28.88 433.0
29.09 431.0
29.3 423.0
29.51 398.0
29.72 431.0
29.93 429.0
30.14 450.0
30.35 486.0
30.56 439.0
30.77 448.0
30.98 374.0
31.19 381.0
31.4 369.0
31.61 366.0
31.82 339.0
32.03 347.0
32.24 336.0
32.45 286.0
32.66 309.0
32.87 325.0
33.08 300.0
33.29 286.0
33.5 306.0
33.71 305.0
33.92 276.0
34.13 286.0
34.34 258.0
34.55 285.0
34.76 290.0
34.97 255.0
35.18 268.0
35.39 239.0
35.6 286.0
35.81 238.0
36.02 238.0
36.23 233.0
36.44 244.0
36.65 240.0
36.86 216.0
37.07 216.0
37.28 219.0
37.49 218.0
37.7 197.0
37.91 215.0
38.12 198.0
38.33 202.0
38.54 192.0
38.75 227.0
38.96 235.0
39.17 201.0
39.38 204.0
39.59 234.0
39.8 228.0
40.01 222.0
40.22 229.0
40.43 230.0
40.64 240.0
40.85 230.0
41.06 258.0
41.27 234.0
41.48 216.0
41.69 205.0
41.9 201.0
42.11 220.0
42.32 213.0
42.53 199.0
42.74 195.0
42.95 202.0
43.16 209.0
43.37 185.0
43.58 227.0
43.79 207.0
44.0 213.0
44.21 203.0
44.42 186.0
44.63 192.0
44.84 195.0
45.05 185.0
45.26 189.0
45.47 199.0
45.68 188.0
45.89 202.0
46.1 218.0
46.31 183.0
46.52 196.0
46.73 180.0
46.94 192.0
47.15 182.0
47.36 171.0
47.57 177.0
47.78 184.0
47.99 165.0
48.2 177.0
48.41 163.0
48.62 176.0
48.83 173.0
49.04 173.0
49.25 175.0
49.46 169.0
49.67 166.0
49.88 163.0
50.09 167.0
50.3 178.0
50.51 143.0
50.72 183.0
50.93 152.0
51.14 158.0
51.35 165.0
51.56 161.0
51.77 175.0
51.98 174.0
52.19 193.0
52.4 163.0
52.61 179.0
52.82 161.0
53.03 154.0
53.24 171.0
53.45 158.0
53.66 176.0
53.87 165.0
54.08 160.0
54.29 169.0
54.5 162.0
54.71 156.0
54.92 162.0
55.13 156.0
55.34 160.0
55.55 134.0
55.76 166.0
55.97 165.0
56.18 151.0
56.39 156.0
56.6 176.0
56.81 178.0
57.02 136.0
57.23 154.0
57.44 149.0
57.65 147.0
57.86 159.0
58.07 158.0
58.28 146.0
58.49 144.0
58.7 158.0
58.91 154.0
59.12 147.0
59.33 157.0
59.54 153.0
59.75 147.0
59.96 155.0
60.17 136.0
60.38 157.0
60.59 144.0
60.8 128.0
61.01 151.0
61.22 160.0
61.43 142.0
61.64 138.0
61.85 141.0
61.985 134.0