File: ISoD/xrd_data/HSC0075.xy
2.00000	5694.000
2.21000	5174.000
2.42000	6824.000
2.63000	4040.000
2.84000	5219.000
3.05000	3293.000
3.26000	2956.000
3.47000	2682.000
3.68000	2508.000
3.89000	2467.000
4.10000	2347.000
4.31000	2209.000
4.52000	2069.000
4.73000	1947.000
4.94000	1930.000
5.15000	2082.000
5.36000	1747.000
5.57000	1726.000
5.78000	1583.000
5.99000	1924.000
6.20000	2280.000
6.41000	1631.000
6.62000	1367.000
6.83000	1271.000
7.04000	1236.000
7.25000	1245.000
7.46000	1163.000
7.67000	1202.000
7.88000	1151.000
8.09000	1058.000
8.30000	1089.000
8.51000	1571.000
8.72000	1254.000
8.93000	1110.000
9.14000	973.000
9.35000	954.000
9.56000	923.000
9.77000	963.000
9.98000	1052.000
10.19000	1388.000
10.40000	1581.000
10.61000	1262.000
10.82000	1123.000
11.03000	1320.000
11.24000	803.000
11.45000	719.000
11.66000	729.000
11.87000	716.000
12.08000	697.000
12.29000	706.000
12.50000	780.000
12.71000	699.000
12.92000	665.000
13.13000	633.000
13.34000	665.000
13.55000	643.000
13.76000	588.000
13.97000	610.000
14.18000	645.000
14.39000	620.000
14.60000	578.000
14.81000	611.000
15.02000	674.000
15.23000	593.000
15.44000	570.000
15.65000	570.000
15.86000	553.000
16.07000	563.000
16.28000	546.000
16.49000	568.000
16.70000	550.000
16.91000	564.000
17.12000	530.000
17.33000	608.000
17.54000	709.000
17.75000	621.000
17.96000	643.000
18.17000	563.000
18.38000	608.000
18.59000	746.000
18.80000	1022.000
19.01000	926.000
19.22000	902.000
19.43000	601.000
19.64000	498.000
19.85000	504.000
20.06000	479.000
20.27000	496.000
20.48000	538.000
20.69000	521.000
20.90000	550.000
21.11000	565.000
21.32000	496.000
21.53000	497.000
21.74000	457.000
21.95000	478.000
22.16000	481.000
22.37000	483.000
22.58000	472.000
22.79000	475.000
23.00000	486.000
23.21000	520.000
23.42000	504.000
23.63000	474.000
23.84000	508.000
24.05000	475.000
24.26000	507.000
24.47000	715.000
24.68000	574.000
24.89000	686.000
25.10000	902.000
25.31000	871.000
25.52000	1076.000
25.73000	1051.000
25.94000	859.000
26.15000	830.000
26.36000	737.000
26.57000	1355.000
26.78000	735.000
26.99000	686.000
27.20000	757.000
27.41000	895.000
27.62000	1822.000
27.83000	1425.000
28.04000	1881.000
28.25000	1367.000
28.46000	810.000
28.67000	657.000
28.88000	577.000
29.09000	560.000
29.30000	503.000
29.51000	520.000
29.72000	477.000
29.93000	499.000
30.14000	479.000
30.35000	537.000
30.56000	444.000
30.77000	390.000
30.98000	429.000
31.19000	399.000
31.40000	381.000
31.61000	453.000
31.82000	380.000
32.03000	415.000
32.24000	360.000
32.45000	350.000
32.66000	445.000
32.87000	356.000
33.08000	397.000
33.29000	346.000
33.50000	323.000
33.71000	397.000
33.92000	362.000
34.13000	326.000
34.34000	341.000
34.55000	300.000
34.76000	288.000
34.97000	292.000
35.18000	299.000
35.39000	314.000
35.60000	316.000
35.81000	500.000
36.02000	325.000
36.23000	306.000
36.44000	294.000
36.65000	282.000
36.86000	309.000
37.07000	320.000
37.28000	299.000
37.49000	322.000
37.70000	305.000
37.91000	287.000
38.12000	273.000
38.33000	295.000
38.54000	256.000
38.75000	323.000
38.96000	287.000
39.17000	267.000
39.38000	278.000
39.59000	270.000
39.80000	225.000
40.01000	242.000
40.22000	229.000
40.43000	226.000
40.64000	224.000
40.85000	280.000
41.06000	208.000
41.27000	214.000
41.48000	233.000
41.69000	229.000
41.90000	225.000
42.11000	207.000
42.32000	248.000
42.53000	257.000
42.74000	225.000
42.95000	223.000
43.16000	240.000
43.37000	237.000
43.58000	203.000
43.79000	211.000
44.00000	199.000
44.21000	229.000
44.42000	212.000
44.63000	204.000
44.84000	208.000
45.05000	217.000
45.26000	242.000
45.47000	246.000
45.68000	237.000
45.89000	222.000
46.10000	190.000
46.31000	238.000
46.52000	198.000
46.73000	189.000
46.94000	191.000
47.15000	206.000
47.36000	184.000
47.57000	226.000
47.78000	213.000
47.99000	224.000
48.20000	205.000
48.41000	210.000
48.62000	203.000
48.83000	191.000
49.04000	218.000
49.25000	206.000
49.46000	196.000
49.67000	189.000
49.88000	195.000
50.09000	192.000
50.30000	181.000
50.51000	199.000
50.72000	197.000
50.93000	190.000
51.14000	192.000
51.35000	169.000
51.56000	198.000
51.77000	190.000
51.98000	201.000
52.19000	179.000
52.40000	206.000
52.61000	183.000
52.82000	209.000
53.03000	202.000
53.24000	189.000
53.45000	221.000
53.66000	217.000
53.87000	199.000
54.08000	218.000
54.29000	207.000
54.50000	213.000
54.71000	206.000
54.92000	198.000
55.13000	184.000
55.34000	192.000
55.55000	202.000
55.76000	205.000
55.97000	201.000
56.18000	202.000
56.39000	176.000
56.60000	190.000
56.81000	171.000
57.02000	177.000
57.23000	175.000
57.44000	179.000
57.65000	179.000
57.86000	192.000
58.07000	186.000
58.28000	188.000
58.49000	210.000
58.70000	178.000
58.91000	169.000
59.12000	149.000
59.33000	157.000
59.54000	161.000
59.75000	144.000
59.96000	163.000
60.17000	154.000
60.38000	164.000
60.59000	166.000
60.80000	147.000
61.01000	144.000
61.22000	138.000
61.43000	167.000
61.64000	172.000
61.85000	145.000
61.98500	156.000