File: ISoD/xrd_data/HSC078.xy
2.00000 4.000
2.21000 6.000
2.42000 6.000
2.63000 4.000
2.84000 2.000
3.05000 16.000
3.26000 429.000
3.47000 378.000
3.68000 378.000
3.89000 366.000
4.10000 329.000
4.31000 337.000
4.52000 341.000
4.73000 328.000
4.94000 340.000
5.15000 327.000
5.36000 328.000
5.57000 353.000
5.78000 348.000
5.99000 371.000
6.20000 329.000
6.41000 348.000
6.62000 347.000
6.83000 334.000
7.04000 354.000
7.25000 361.000
7.46000 369.000
7.67000 362.000
7.88000 381.000
8.09000 349.000
8.30000 376.000
8.51000 392.000
8.72000 423.000
8.93000 381.000
9.14000 350.000
9.35000 372.000
9.56000 384.000
9.77000 375.000
9.98000 407.000
10.19000 431.000
10.40000 403.000
10.61000 420.000
10.82000 414.000
11.03000 439.000
11.24000 454.000
11.45000 425.000
11.66000 478.000
11.87000 473.000
12.08000 479.000
12.29000 508.000
12.50000 567.000
12.71000 607.000
12.92000 609.000
13.13000 636.000
13.34000 662.000
13.55000 618.000
13.76000 629.000
13.97000 625.000
14.18000 592.000
14.39000 607.000
14.60000 596.000
14.81000 587.000
15.02000 561.000
15.23000 552.000
15.44000 530.000
15.65000 583.000
15.86000 557.000
16.07000 578.000
16.28000 550.000
16.49000 548.000
16.70000 514.000
16.91000 546.000
17.12000 533.000
17.33000 596.000
17.54000 574.000
17.75000 585.000
17.96000 602.000
18.17000 590.000
18.38000 563.000
18.59000 556.000
18.80000 583.000
19.01000 554.000
19.22000 579.000
19.43000 575.000
19.64000 552.000
19.85000 581.000
20.06000 520.000
20.27000 553.000
20.48000 534.000
20.69000 562.000
20.90000 530.000
21.11000 536.000
21.32000 553.000
21.53000 580.000
21.74000 553.000
21.95000 577.000
22.16000 561.000
22.37000 559.000
22.58000 556.000
22.79000 586.000
23.00000 592.000
23.21000 574.000
23.42000 556.000
23.63000 541.000
23.84000 581.000
24.05000 574.000
24.26000 541.000
24.47000 596.000
24.68000 554.000
24.89000 606.000
25.10000 601.000
25.31000 639.000
25.52000 694.000
25.73000 748.000
25.94000 769.000
26.15000 883.000
26.36000 920.000
26.57000 1104.000
26.78000 1340.000
26.99000 1635.000
27.20000 1907.000
27.41000 2080.000
27.62000 2092.000
27.83000 1731.000
28.04000 1334.000
28.25000 1032.000
28.46000 859.000
28.67000 689.000
28.88000 665.000
29.09000 627.000
29.30000 552.000
29.51000 582.000
29.72000 473.000
29.93000 472.000
30.14000 448.000
30.35000 485.000
30.56000 449.000
30.77000 462.000
30.98000 450.000
31.19000 408.000
31.40000 411.000
31.61000 392.000
31.82000 389.000
32.03000 367.000
32.24000 390.000
32.45000 356.000
32.66000 338.000
32.87000 356.000
33.08000 325.000
33.29000 310.000
33.50000 317.000
33.71000 326.000
33.92000 303.000
34.13000 307.000
34.34000 308.000
34.55000 327.000
34.76000 306.000
34.97000 278.000
35.18000 285.000
35.39000 301.000
35.60000 299.000
35.81000 273.000
36.02000 294.000
36.23000 266.000
36.44000 256.000
36.65000 274.000
36.86000 275.000
37.07000 227.000
37.28000 254.000
37.49000 238.000
37.70000 227.000
37.91000 247.000
38.12000 271.000
38.33000 227.000
38.54000 254.000
38.75000 239.000
38.96000 262.000
39.17000 254.000
39.38000 240.000
39.59000 234.000
39.80000 242.000
40.01000 226.000
40.22000 234.000
40.43000 231.000
40.64000 221.000
40.85000 238.000
41.06000 250.000
41.27000 245.000
41.48000 246.000
41.69000 243.000
41.90000 245.000
42.11000 270.000
42.32000 240.000
42.53000 237.000
42.74000 263.000
42.95000 262.000
43.16000 253.000
43.37000 244.000
43.58000 249.000
43.79000 252.000
44.00000 267.000
44.21000 269.000
44.42000 281.000
44.63000 264.000
44.84000 259.000
45.05000 262.000
45.26000 246.000
45.47000 272.000
45.68000 280.000
45.89000 286.000
46.10000 262.000
46.31000 217.000
46.52000 247.000
46.73000 254.000
46.94000 219.000
47.15000 232.000
47.36000 212.000
47.57000 212.000
47.78000 224.000
47.99000 236.000
48.20000 214.000
48.41000 223.000
48.62000 214.000
48.83000 224.000
49.04000 219.000
49.25000 201.000
49.46000 209.000
49.67000 207.000
49.88000 203.000
50.09000 208.000
50.30000 197.000
50.51000 208.000
50.72000 191.000
50.93000 205.000
51.14000 212.000
51.35000 186.000
51.56000 193.000
51.77000 211.000
51.98000 198.000
52.19000 213.000
52.40000 210.000
52.61000 194.000
52.82000 178.000
53.03000 207.000
53.24000 213.000
53.45000 196.000
53.66000 200.000
53.87000 183.000
54.08000 202.000
54.29000 184.000
54.50000 185.000
54.71000 222.000
54.92000 201.000
55.13000 190.000
55.34000 202.000
55.55000 206.000
55.76000 198.000
55.97000 233.000
56.18000 211.000
56.39000 215.000
56.60000 209.000
56.81000 199.000
57.02000 222.000
57.23000 227.000
57.44000 202.000
57.65000 205.000
57.86000 178.000
58.07000 172.000
58.28000 187.000
58.49000 175.000
58.70000 165.000
58.91000 148.000
59.12000 178.000
59.33000 161.000
59.54000 168.000
59.75000 152.000
59.96000 166.000
60.17000 162.000
60.38000 164.000
60.59000 158.000
60.80000 137.000
61.01000 165.000
61.22000 136.000
61.43000 151.000
61.64000 155.000
61.85000 151.000
61.98500 138.000