File: ISoD/xrd_data/HSC077_nPC.xy
2.00000 2.000
2.21000 1.000
2.42000 1.000
2.63000 0.000
2.84000 2.000
3.05000 6.000
3.26000 128.000
3.47000 340.000
3.68000 319.000
3.89000 302.000
4.10000 304.000
4.31000 286.000
4.52000 231.000
4.73000 239.000
4.94000 256.000
5.15000 261.000
5.36000 246.000
5.57000 262.000
5.78000 271.000
5.99000 325.000
6.20000 614.000
6.41000 291.000
6.62000 248.000
6.83000 221.000
7.04000 244.000
7.25000 262.000
7.46000 250.000
7.67000 243.000
7.88000 237.000
8.09000 239.000
8.30000 286.000
8.51000 259.000
8.72000 279.000
8.93000 313.000
9.14000 255.000
9.35000 262.000
9.56000 288.000
9.77000 312.000
9.98000 305.000
10.19000 439.000
10.40000 766.000
10.61000 702.000
10.82000 577.000
11.03000 1093.000
11.24000 350.000
11.45000 281.000
11.66000 278.000
11.87000 274.000
12.08000 266.000
12.29000 264.000
12.50000 321.000
12.71000 246.000
12.92000 235.000
13.13000 235.000
13.34000 267.000
13.55000 249.000
13.76000 262.000
13.97000 246.000
14.18000 273.000
14.39000 253.000
14.60000 252.000
14.81000 245.000
15.02000 331.000
15.23000 264.000
15.44000 245.000
15.65000 297.000
15.86000 263.000
16.07000 288.000
16.28000 262.000
16.49000 278.000
16.70000 276.000
16.91000 279.000
17.12000 309.000
17.33000 337.000
17.54000 404.000
17.75000 364.000
17.96000 331.000
18.17000 299.000
18.38000 273.000
18.59000 334.000
18.80000 439.000
19.01000 383.000
19.22000 533.000
19.43000 298.000
19.64000 283.000
19.85000 309.000
20.06000 302.000
20.27000 285.000
20.48000 297.000
20.69000 308.000
20.90000 330.000
21.11000 361.000
21.32000 316.000
21.53000 255.000
21.74000 281.000
21.95000 277.000
22.16000 296.000
22.37000 274.000
22.58000 268.000
22.79000 299.000
23.00000 265.000
23.21000 297.000
23.42000 305.000
23.63000 304.000
23.84000 299.000
24.05000 318.000
24.26000 292.000
24.47000 417.000
24.68000 364.000
24.89000 377.000
25.10000 499.000
25.31000 485.000
25.52000 739.000
25.73000 533.000
25.94000 445.000
26.15000 431.000
26.36000 395.000
26.57000 688.000
26.78000 390.000
26.99000 359.000
27.20000 397.000
27.41000 441.000
27.62000 854.000
27.83000 811.000
28.04000 1515.000
28.25000 891.000
28.46000 447.000
28.67000 384.000
28.88000 321.000
29.09000 307.000
29.30000 291.000
29.51000 303.000
29.72000 299.000
29.93000 303.000
30.14000 324.000
30.35000 344.000
30.56000 317.000
30.77000 234.000
30.98000 258.000
31.19000 243.000
31.40000 242.000
31.61000 282.000
31.82000 256.000
32.03000 265.000
32.24000 230.000
32.45000 228.000
32.66000 259.000
32.87000 207.000
33.08000 233.000
33.29000 241.000
33.50000 232.000
33.71000 300.000
33.92000 280.000
34.13000 225.000
34.34000 229.000
34.55000 198.000
34.76000 186.000
34.97000 182.000
35.18000 186.000
35.39000 218.000
35.60000 194.000
35.81000 294.000
36.02000 189.000
36.23000 190.000
36.44000 172.000
36.65000 175.000
36.86000 158.000
37.07000 177.000
37.28000 163.000
37.49000 184.000
37.70000 176.000
37.91000 180.000
38.12000 155.000
38.33000 167.000
38.54000 170.000
38.75000 206.000
38.96000 201.000
39.17000 184.000
39.38000 205.000
39.59000 170.000
39.80000 150.000
40.01000 147.000
40.22000 174.000
40.43000 155.000
40.64000 175.000
40.85000 185.000
41.06000 140.000
41.27000 153.000
41.48000 149.000
41.69000 151.000
41.90000 134.000
42.11000 153.000
42.32000 168.000
42.53000 169.000
42.74000 166.000
42.95000 169.000
43.16000 167.000
43.37000 153.000
43.58000 126.000
43.79000 139.000
44.00000 140.000
44.21000 141.000
44.42000 144.000
44.63000 151.000
44.84000 171.000
45.05000 148.000
45.26000 135.000
45.47000 158.000
45.68000 127.000
45.89000 129.000
46.10000 121.000
46.31000 147.000
46.52000 130.000
46.73000 135.000
46.94000 134.000
47.15000 136.000
47.36000 126.000
47.57000 153.000
47.78000 139.000
47.99000 119.000
48.20000 127.000
48.41000 132.000
48.62000 136.000
48.83000 123.000
49.04000 133.000
49.25000 131.000
49.46000 111.000
49.67000 120.000
49.88000 118.000
50.09000 137.000
50.30000 126.000
50.51000 128.000
50.72000 135.000
50.93000 117.000
51.14000 118.000
51.35000 121.000
51.56000 136.000
51.77000 119.000
51.98000 113.000
52.19000 120.000
52.40000 156.000
52.61000 119.000
52.82000 132.000
53.03000 126.000
53.24000 131.000
53.45000 137.000
53.66000 129.000
53.87000 139.000
54.08000 159.000
54.29000 134.000
54.50000 133.000
54.71000 129.000
54.92000 115.000
55.13000 135.000
55.34000 110.000
55.55000 116.000
55.76000 126.000
55.97000 112.000
56.18000 116.000
56.39000 102.000
56.60000 119.000
56.81000 125.000
57.02000 114.000
57.23000 121.000
57.44000 131.000
57.65000 124.000
57.86000 127.000
58.07000 133.000
58.28000 121.000
58.49000 134.000
58.70000 115.000
58.91000 102.000
59.12000 111.000
59.33000 105.000
59.54000 107.000
59.75000 85.000
59.96000 98.000
60.17000 116.000
60.38000 107.000
60.59000 120.000
60.80000 106.000
61.01000 98.000
61.22000 87.000
61.43000 99.000
61.64000 100.000
61.85000 95.000
61.98500 111.000