File: ISoD/xrd_data/HSC089.xy
2.00000 0.000
2.21000 0.000
2.42000 0.000
2.63000 1.000
2.84000 0.000
3.05000 1.000
3.26000 15.000
3.47000 14.000
3.68000 18.000
3.89000 30.000
4.10000 26.000
4.31000 18.000
4.52000 31.000
4.73000 31.000
4.94000 28.000
5.15000 33.000
5.36000 37.000
5.57000 28.000
5.78000 31.000
5.99000 46.000
6.20000 25.000
6.41000 40.000
6.62000 40.000
6.83000 35.000
7.04000 28.000
7.25000 40.000
7.46000 44.000
7.67000 51.000
7.88000 43.000
8.09000 37.000
8.30000 39.000
8.51000 39.000
8.72000 43.000
8.93000 35.000
9.14000 44.000
9.35000 34.000
9.56000 44.000
9.77000 41.000
9.98000 48.000
10.19000 43.000
10.40000 40.000
10.61000 51.000
10.82000 46.000
11.03000 44.000
11.24000 55.000
11.45000 247.000
11.66000 50.000
11.87000 49.000
12.08000 39.000
12.29000 48.000
12.50000 45.000
12.71000 40.000
12.92000 44.000
13.13000 49.000
13.34000 57.000
13.55000 43.000
13.76000 39.000
13.97000 46.000
14.18000 57.000
14.39000 53.000
14.60000 39.000
14.81000 51.000
15.02000 40.000
15.23000 78.000
15.44000 102.000
15.65000 41.000
15.86000 53.000
16.07000 48.000
16.28000 47.000
16.49000 37.000
16.70000 45.000
16.91000 49.000
17.12000 45.000
17.33000 40.000
17.54000 46.000
17.75000 50.000
17.96000 43.000
18.17000 50.000
18.38000 92.000
18.59000 49.000
18.80000 60.000
19.01000 53.000
19.22000 47.000
19.43000 55.000
19.64000 53.000
19.85000 52.000
20.06000 56.000
20.27000 57.000
20.48000 56.000
20.69000 53.000
20.90000 56.000
21.11000 81.000
21.32000 56.000
21.53000 58.000
21.74000 90.000
21.95000 67.000
22.16000 57.000
22.37000 50.000
22.58000 136.000
22.79000 69.000
23.00000 1121.000
23.21000 75.000
23.42000 64.000
23.63000 62.000
23.84000 60.000
24.05000 64.000
24.26000 56.000
24.47000 52.000
24.68000 61.000
24.89000 236.000
25.10000 63.000
25.31000 56.000
25.52000 57.000
25.73000 193.000
25.94000 72.000
26.15000 74.000
26.36000 108.000
26.57000 74.000
26.78000 99.000
26.99000 65.000
27.20000 42.000
27.41000 49.000
27.62000 330.000
27.83000 80.000
28.04000 62.000
28.25000 59.000
28.46000 62.000
28.67000 1053.000
28.88000 218.000
29.09000 63.000
29.30000 60.000
29.51000 42.000
29.72000 57.000
29.93000 52.000
30.14000 48.000
30.35000 46.000
30.56000 50.000
30.77000 46.000
30.98000 50.000
31.19000 61.000
31.40000 930.000
31.61000 59.000
31.82000 59.000
32.03000 51.000
32.24000 53.000
32.45000 52.000
32.66000 55.000
32.87000 52.000
33.08000 41.000
33.29000 166.000
33.50000 85.000
33.71000 40.000
33.92000 53.000
34.13000 552.000
34.34000 59.000
34.55000 44.000
34.76000 63.000
34.97000 68.000
35.18000 40.000
35.39000 34.000
35.60000 41.000
35.81000 133.000
36.02000 65.000
36.23000 40.000
36.44000 44.000
36.65000 36.000
36.86000 41.000
37.07000 313.000
37.28000 72.000
37.49000 45.000
37.70000 53.000
37.91000 147.000
38.12000 43.000
38.33000 33.000
38.54000 38.000
38.75000 39.000
38.96000 38.000
39.17000 41.000
39.38000 190.000
39.59000 38.000
39.80000 46.000
40.01000 51.000
40.22000 42.000
40.43000 44.000
40.64000 109.000
40.85000 33.000
41.06000 38.000
41.27000 41.000
41.48000 37.000
41.69000 39.000
41.90000 38.000
42.11000 84.000
42.32000 36.000
42.53000 52.000
42.74000 358.000
42.95000 49.000
43.16000 76.000
43.37000 43.000
43.58000 34.000
43.79000 36.000
44.00000 51.000
44.21000 40.000
44.42000 50.000
44.63000 50.000
44.84000 36.000
45.05000 44.000
45.26000 84.000
45.47000 52.000
45.68000 41.000
45.89000 34.000
46.10000 39.000
46.31000 171.000
46.52000 38.000
46.73000 47.000
46.94000 43.000
47.15000 92.000
47.36000 44.000
47.57000 42.000
47.78000 269.000
47.99000 55.000
48.20000 56.000
48.41000 39.000
48.62000 43.000
48.83000 42.000
49.04000 91.000
49.25000 35.000
49.46000 72.000
49.67000 85.000
49.88000 134.000
50.09000 56.000
50.30000 45.000
50.51000 61.000
50.72000 48.000
50.93000 60.000
51.14000 105.000
51.35000 67.000
51.56000 40.000
51.77000 45.000
51.98000 107.000
52.19000 55.000
52.40000 44.000
52.61000 43.000
52.82000 49.000
53.03000 197.000
53.24000 83.000
53.45000 46.000
53.66000 43.000
53.87000 94.000
54.08000 58.000
54.29000 54.000
54.50000 44.000
54.71000 49.000
54.92000 43.000
55.13000 114.000
55.34000 79.000
55.55000 55.000
55.76000 262.000
55.97000 60.000
56.18000 54.000
56.39000 52.000
56.60000 93.000
56.81000 116.000
57.02000 57.000
57.23000 119.000
57.44000 60.000
57.65000 48.000
57.86000 79.000
58.07000 61.000
58.28000 45.000
58.49000 43.000
58.70000 44.000
58.91000 42.000
59.12000 109.000
59.33000 38.000
59.54000 45.000
59.75000 71.000
59.96000 108.000
60.17000 89.000
60.38000 73.000
60.59000 61.000
60.80000 60.000
61.01000 46.000
61.22000 62.000
61.43000 49.000
61.64000 133.000
61.85000 59.000
61.98500 47.000