File: ISoD/xrd_data/HSC047_Sublimat.xy
2.00000 5.000
2.21000 0.000
2.42000 2.000
2.63000 1.000
2.84000 35.000
3.05000 111.000
3.26000 122.000
3.47000 140.000
3.68000 135.000
3.89000 175.000
4.10000 224.000
4.31000 219.000
4.52000 211.000
4.73000 222.000
4.94000 230.000
5.15000 263.000
5.36000 245.000
5.57000 238.000
5.78000 257.000
5.99000 252.000
6.20000 270.000
6.41000 278.000
6.62000 264.000
6.83000 261.000
7.04000 270.000
7.25000 271.000
7.46000 280.000
7.67000 295.000
7.88000 287.000
8.09000 286.000
8.30000 302.000
8.51000 292.000
8.72000 301.000
8.93000 318.000
9.14000 305.000
9.35000 317.000
9.56000 311.000
9.77000 269.000
9.98000 306.000
10.19000 319.000
10.40000 358.000
10.61000 299.000
10.82000 288.000
11.03000 298.000
11.24000 312.000
11.45000 295.000
11.66000 322.000
11.87000 317.000
12.08000 327.000
12.29000 431.000
12.50000 312.000
12.71000 347.000
12.92000 378.000
13.13000 2178.000
13.34000 318.000
13.55000 326.000
13.76000 313.000
13.97000 316.000
14.18000 331.000
14.39000 340.000
14.60000 306.000
14.81000 559.000
15.02000 355.000
15.23000 326.000
15.44000 338.000
15.65000 318.000
15.86000 339.000
16.07000 331.000
16.28000 321.000
16.49000 357.000
16.70000 311.000
16.91000 338.000
17.12000 349.000
17.33000 385.000
17.54000 639.000
17.75000 3456.000
17.96000 845.000
18.17000 380.000
18.38000 333.000
18.59000 338.000
18.80000 347.000
19.01000 344.000
19.22000 319.000
19.43000 350.000
19.64000 361.000
19.85000 350.000
20.06000 342.000
20.27000 332.000
20.48000 367.000
20.69000 361.000
20.90000 360.000
21.11000 337.000
21.32000 396.000
21.53000 796.000
21.74000 1013.000
21.95000 572.000
22.16000 691.000
22.37000 351.000
22.58000 341.000
22.79000 338.000
23.00000 356.000
23.21000 367.000
23.42000 332.000
23.63000 347.000
23.84000 335.000
24.05000 354.000
24.26000 329.000
24.47000 353.000
24.68000 332.000
24.89000 335.000
25.10000 348.000
25.31000 340.000
25.52000 561.000
25.73000 1072.000
25.94000 419.000
26.15000 4191.000
26.36000 673.000
26.57000 392.000
26.78000 349.000
26.99000 545.000
27.20000 605.000
27.41000 337.000
27.62000 346.000
27.83000 442.000
28.04000 419.000
28.25000 319.000
28.46000 368.000
28.67000 412.000
28.88000 2356.000
29.09000 404.000
29.30000 319.000
29.51000 354.000
29.72000 682.000
29.93000 644.000
30.14000 366.000
30.35000 655.000
30.56000 255.000
30.77000 290.000
30.98000 295.000
31.19000 336.000
31.40000 280.000
31.61000 271.000
31.82000 279.000
32.03000 245.000
32.24000 256.000
32.45000 251.000
32.66000 253.000
32.87000 253.000
33.08000 259.000
33.29000 277.000
33.50000 300.000
33.71000 251.000
33.92000 319.000
34.13000 226.000
34.34000 415.000
34.55000 246.000
34.76000 211.000
34.97000 254.000
35.18000 241.000
35.39000 215.000
35.60000 208.000
35.81000 743.000
36.02000 296.000
36.23000 952.000
36.44000 454.000
36.65000 358.000
36.86000 233.000
37.07000 286.000
37.28000 258.000
37.49000 216.000
37.70000 340.000
37.91000 208.000
38.12000 192.000
38.33000 1163.000
38.54000 233.000
38.75000 189.000
38.96000 177.000
39.17000 186.000
39.38000 153.000
39.59000 235.000
39.80000 157.000
40.01000 179.000
40.22000 168.000
40.43000 181.000
40.64000 187.000
40.85000 152.000
41.06000 284.000
41.27000 168.000
41.48000 180.000
41.69000 209.000
41.90000 222.000
42.11000 176.000
42.32000 160.000
42.53000 311.000
42.74000 165.000
42.95000 166.000
43.16000 155.000
43.37000 179.000
43.58000 174.000
43.79000 226.000
44.00000 325.000
44.21000 175.000
44.42000 157.000
44.63000 196.000
44.84000 666.000
45.05000 214.000
45.26000 188.000
45.47000 234.000
45.68000 213.000
45.89000 173.000
46.10000 178.000
46.31000 210.000
46.52000 166.000
46.73000 186.000
46.94000 224.000
47.15000 188.000
47.36000 176.000
47.57000 1452.000
47.78000 168.000
47.99000 167.000
48.20000 204.000
48.41000 246.000
48.62000 160.000
48.83000 158.000
49.04000 158.000
49.25000 161.000
49.46000 158.000
49.67000 172.000
49.88000 138.000
50.09000 228.000
50.30000 434.000
50.51000 201.000
50.72000 153.000
50.93000 179.000
51.14000 162.000
51.35000 164.000
51.56000 163.000
51.77000 211.000
51.98000 163.000
52.19000 233.000
52.40000 170.000
52.61000 173.000
52.82000 201.000
53.03000 636.000
53.24000 189.000
53.45000 157.000
53.66000 209.000
53.87000 164.000
54.08000 175.000
54.29000 176.000
54.50000 345.000
54.71000 182.000
54.92000 280.000
55.13000 238.000
55.34000 326.000
55.55000 287.000
55.76000 248.000
55.97000 192.000
56.18000 340.000
56.39000 188.000
56.60000 207.000
56.81000 181.000
57.02000 168.000
57.23000 283.000
57.44000 163.000
57.65000 166.000
57.86000 178.000
58.07000 153.000
58.28000 141.000
58.49000 163.000
58.70000 139.000
58.91000 181.000
59.12000 157.000
59.33000 154.000
59.54000 146.000
59.75000 122.000
59.96000 207.000
60.17000 147.000
60.38000 147.000
60.59000 225.000
60.80000 134.000
61.01000 146.000
61.22000 140.000
61.43000 135.000
61.64000 142.000
61.85000 160.000
61.98500 208.000