File: ISoD/xrd_data/HSC005_ranges_combined.xy
2.0 627.0
2.21 497.0
2.42 418.0
2.63 376.0
2.84 374.0
3.05 345.0
3.26 310.0
3.47 330.0
3.68 311.0
3.89 326.0
4.1 308.0
4.31 343.0
4.52 303.0
4.73 312.0
4.94 307.0
5.15 326.0
5.36 306.0
5.57 332.0
5.78 362.0
5.99 337.0
6.2 344.0
6.41 347.0
6.62 338.0
6.83 320.0
7.04 318.0
7.25 314.0
7.46 323.0
7.67 301.0
7.88 309.0
8.09 310.0
8.3 311.0
8.51 310.0
8.72 334.0
8.93 300.0
9.14 332.0
9.35 354.0
9.56 342.0
9.77 343.0
9.98 336.0
10.19 374.0
10.4 331.0
10.61 367.0
10.82 360.0
11.03 342.0
11.24 311.0
11.45 306.0
11.66 302.0
11.87 394.0
12.08 969.0
12.29 371.0
12.5 324.0
12.71 340.0
12.92 339.0
13.13 338.0
13.34 347.0
13.55 328.0
13.76 299.0
13.97 325.0
14.18 360.0
14.39 351.0
14.6 336.0
14.81 355.0
15.02 360.0
15.23 330.0
15.44 359.0
15.65 335.0
15.86 361.0
16.07 372.0
16.28 351.0
16.49 365.0
16.7 354.0
16.91 363.0
17.12 357.0
17.33 392.0
17.54 384.0
17.75 392.0
17.96 376.0
18.17 364.0
18.38 409.0
18.59 391.0
18.8 435.0
19.01 433.0
19.22 416.0
19.43 391.0
19.64 401.0
19.85 401.0
20.06 422.0
20.27 419.0
20.48 435.0
20.69 502.0
20.9 4593.0
21.11 546.0
21.32 457.0
21.53 458.0
21.74 449.0
21.95 476.0
22.16 462.0
22.37 435.0
22.58 464.0
22.79 463.0
23.0 464.0
23.21 457.0
23.42 487.0
23.63 463.0
23.84 520.0
24.05 600.0
24.26 2973.0
24.47 844.0
24.68 604.0
24.89 579.0
25.1 1247.0
25.31 920.0
25.52 640.0
25.73 594.0
25.94 552.0
26.15 647.0
26.36 610.0
26.57 646.0
26.78 688.0
26.99 692.0
27.2 741.0
27.41 783.0
27.62 886.0
27.83 2035.0
28.04 4998.0
28.25 1180.0
28.46 731.0
28.67 599.0
28.88 502.0
29.09 492.0
29.3 477.0
29.51 474.0
29.72 454.0
29.93 454.0
30.14 385.0
30.35 434.0
30.56 435.0
30.77 395.0
30.98 375.0
31.19 373.0
31.4 368.0
31.61 394.0
31.82 366.0
32.03 466.0
32.24 5052.0
32.45 442.0
32.66 466.0
32.87 791.0
33.08 707.0
33.29 408.0
33.5 359.0
33.71 324.0
33.92 328.0
34.13 326.0
34.34 297.0
34.55 337.0
34.76 379.0
34.97 464.0
35.18 906.0
35.39 535.0
35.6 377.0
35.81 260.0
36.02 256.0
36.23 264.0
36.44 266.0
36.65 672.0
36.86 259.0
37.07 254.0
37.28 265.0
37.49 274.0
37.7 247.0
37.91 246.0
38.12 234.0
38.33 226.0
38.54 222.0
38.75 238.0
38.96 242.0
39.17 219.0
39.38 235.0
39.59 223.0
39.8 253.0
40.01 232.0
40.22 237.0
40.43 218.0
40.64 247.0
40.85 251.0
41.06 336.0
41.27 559.0
41.48 425.0
41.69 263.0
41.9 266.0
42.11 245.0
42.32 237.0
42.53 231.0
42.74 224.0
42.95 226.0
43.16 242.0
43.37 208.0
43.58 225.0
43.79 234.0
44.0 252.0
44.21 267.0
44.42 1219.0
44.63 470.0
44.84 465.0
45.05 568.0
45.26 364.0
45.47 262.0
45.68 233.0
45.89 247.0
46.1 259.0
46.31 330.0
46.52 243.0
46.73 217.0
46.94 202.0
47.15 230.0
47.36 212.0
47.57 220.0
47.78 215.0
47.99 205.0
48.2 199.0
48.41 213.0
48.62 203.0
48.83 216.0
49.04 230.0
49.25 245.0
49.46 243.0
49.67 478.0
49.88 420.0
50.09 836.0
50.3 533.0
50.51 346.0
50.72 262.0
50.93 229.0
51.14 241.0
51.35 286.0
51.56 447.0
51.77 629.0
51.98 335.0
52.19 241.0
52.4 218.0
52.61 227.0
52.82 227.0
53.03 228.0
53.24 261.0
53.45 226.0
53.66 187.0
53.87 195.0
54.08 210.0
54.29 332.0
54.5 493.0
54.71 229.0
54.92 193.0
55.13 225.0
55.34 223.0
55.55 235.0
55.76 221.0
55.97 233.0
56.18 299.0
56.39 373.0
56.6 309.0
56.81 216.0
57.02 216.0
57.23 214.0
57.44 387.0
57.65 270.0
57.86 295.0
58.07 256.0
58.28 210.0
58.49 200.0
58.7 192.0
58.91 214.0
59.12 190.0
59.33 168.0
59.54 196.0
59.75 198.0
59.96 205.0
60.17 208.0
60.38 212.0
60.59 202.0
60.8 213.0
61.01 207.0
61.22 195.0
61.43 185.0
61.64 210.0
61.85 233.0
61.985 253.0