File: ISoD/xrd_data/HSC073.xy
2.00000 3.000
2.21000 2.000
2.42000 5.000
2.63000 1.000
2.84000 4.000
3.05000 7.000
3.26000 56.000
3.47000 226.000
3.68000 209.000
3.89000 229.000
4.10000 282.000
4.31000 254.000
4.52000 268.000
4.73000 285.000
4.94000 305.000
5.15000 338.000
5.36000 317.000
5.57000 345.000
5.78000 333.000
5.99000 364.000
6.20000 350.000
6.41000 367.000
6.62000 410.000
6.83000 409.000
7.04000 399.000
7.25000 376.000
7.46000 379.000
7.67000 377.000
7.88000 405.000
8.09000 403.000
8.30000 393.000
8.51000 426.000
8.72000 399.000
8.93000 425.000
9.14000 420.000
9.35000 407.000
9.56000 416.000
9.77000 404.000
9.98000 405.000
10.19000 427.000
10.40000 438.000
10.61000 440.000
10.82000 412.000
11.03000 439.000
11.24000 439.000
11.45000 453.000
11.66000 441.000
11.87000 445.000
12.08000 465.000
12.29000 427.000
12.50000 436.000
12.71000 446.000
12.92000 462.000
13.13000 424.000
13.34000 448.000
13.55000 450.000
13.76000 466.000
13.97000 469.000
14.18000 481.000
14.39000 521.000
14.60000 464.000
14.81000 482.000
15.02000 477.000
15.23000 488.000
15.44000 456.000
15.65000 505.000
15.86000 457.000
16.07000 496.000
16.28000 470.000
16.49000 495.000
16.70000 482.000
16.91000 506.000
17.12000 496.000
17.33000 483.000
17.54000 511.000
17.75000 520.000
17.96000 491.000
18.17000 513.000
18.38000 487.000
18.59000 529.000
18.80000 540.000
19.01000 514.000
19.22000 492.000
19.43000 515.000
19.64000 511.000
19.85000 479.000
20.06000 546.000
20.27000 535.000
20.48000 527.000
20.69000 510.000
20.90000 544.000
21.11000 524.000
21.32000 536.000
21.53000 496.000
21.74000 518.000
21.95000 568.000
22.16000 536.000
22.37000 553.000
22.58000 530.000
22.79000 519.000
23.00000 525.000
23.21000 532.000
23.42000 515.000
23.63000 525.000
23.84000 534.000
24.05000 495.000
24.26000 498.000
24.47000 475.000
24.68000 500.000
24.89000 460.000
25.10000 503.000
25.31000 524.000
25.52000 494.000
25.73000 496.000
25.94000 533.000
26.15000 467.000
26.36000 469.000
26.57000 466.000
26.78000 451.000
26.99000 436.000
27.20000 447.000
27.41000 414.000
27.62000 438.000
27.83000 379.000
28.04000 399.000
28.25000 415.000
28.46000 391.000
28.67000 418.000
28.88000 400.000
29.09000 422.000
29.30000 410.000
29.51000 398.000
29.72000 398.000
29.93000 387.000
30.14000 370.000
30.35000 358.000
30.56000 380.000
30.77000 369.000
30.98000 347.000
31.19000 357.000
31.40000 340.000
31.61000 346.000
31.82000 340.000
32.03000 324.000
32.24000 339.000
32.45000 291.000
32.66000 291.000
32.87000 290.000
33.08000 274.000
33.29000 270.000
33.50000 283.000
33.71000 287.000
33.92000 278.000
34.13000 274.000
34.34000 282.000
34.55000 258.000
34.76000 270.000
34.97000 247.000
35.18000 244.000
35.39000 235.000
35.60000 265.000
35.81000 243.000
36.02000 242.000
36.23000 229.000
36.44000 223.000
36.65000 236.000
36.86000 220.000
37.07000 223.000
37.28000 224.000
37.49000 193.000
37.70000 218.000
37.91000 191.000
38.12000 210.000
38.33000 179.000
38.54000 214.000
38.75000 202.000
38.96000 211.000
39.17000 202.000
39.38000 198.000
39.59000 190.000
39.80000 188.000
40.01000 187.000
40.22000 215.000
40.43000 203.000
40.64000 184.000
40.85000 185.000
41.06000 188.000
41.27000 177.000
41.48000 183.000
41.69000 208.000
41.90000 189.000
42.11000 175.000
42.32000 193.000
42.53000 166.000
42.74000 181.000
42.95000 178.000
43.16000 167.000
43.37000 178.000
43.58000 186.000
43.79000 185.000
44.00000 169.000
44.21000 188.000
44.42000 178.000
44.63000 173.000
44.84000 160.000
45.05000 160.000
45.26000 180.000
45.47000 181.000
45.68000 170.000
45.89000 184.000
46.10000 170.000
46.31000 163.000
46.52000 165.000
46.73000 169.000
46.94000 172.000
47.15000 150.000
47.36000 143.000
47.57000 164.000
47.78000 170.000
47.99000 153.000
48.20000 149.000
48.41000 162.000
48.62000 153.000
48.83000 159.000
49.04000 150.000
49.25000 156.000
49.46000 147.000
49.67000 139.000
49.88000 153.000
50.09000 148.000
50.30000 140.000
50.51000 150.000
50.72000 149.000
50.93000 147.000
51.14000 140.000
51.35000 153.000
51.56000 153.000
51.77000 152.000
51.98000 144.000
52.19000 131.000
52.40000 139.000
52.61000 139.000
52.82000 143.000
53.03000 143.000
53.24000 134.000
53.45000 132.000
53.66000 131.000
53.87000 130.000
54.08000 129.000
54.29000 145.000
54.50000 121.000
54.71000 145.000
54.92000 124.000
55.13000 128.000
55.34000 145.000
55.55000 133.000
55.76000 123.000
55.97000 137.000
56.18000 124.000
56.39000 145.000
56.60000 137.000
56.81000 122.000
57.02000 126.000
57.23000 125.000
57.44000 130.000
57.65000 126.000
57.86000 117.000
58.07000 127.000
58.28000 123.000
58.49000 120.000
58.70000 136.000
58.91000 133.000
59.12000 124.000
59.33000 125.000
59.54000 116.000
59.75000 103.000
59.96000 136.000
60.17000 111.000
60.38000 144.000
60.59000 115.000
60.80000 126.000
61.01000 122.000
61.22000 117.000
61.43000 121.000
61.64000 124.000
61.85000 117.000
61.98500 126.000