File: ISoD/xrd_data/HSC040.xy
2.00000 5.000
2.21000 6.000
2.42000 3.000
2.63000 6.000
2.84000 1.000
3.05000 8.000
3.26000 378.000
3.47000 499.000
3.68000 449.000
3.89000 404.000
4.10000 349.000
4.31000 360.000
4.52000 328.000
4.73000 302.000
4.94000 275.000
5.15000 306.000
5.36000 299.000
5.57000 297.000
5.78000 258.000
5.99000 290.000
6.20000 268.000
6.41000 283.000
6.62000 273.000
6.83000 294.000
7.04000 261.000
7.25000 270.000
7.46000 295.000
7.67000 275.000
7.88000 289.000
8.09000 271.000
8.30000 270.000
8.51000 275.000
8.72000 278.000
8.93000 271.000
9.14000 270.000
9.35000 299.000
9.56000 272.000
9.77000 282.000
9.98000 249.000
10.19000 307.000
10.40000 294.000
10.61000 264.000
10.82000 291.000
11.03000 286.000
11.24000 294.000
11.45000 315.000
11.66000 320.000
11.87000 486.000
12.08000 705.000
12.29000 417.000
12.50000 323.000
12.71000 294.000
12.92000 292.000
13.13000 295.000
13.34000 256.000
13.55000 266.000
13.76000 270.000
13.97000 283.000
14.18000 298.000
14.39000 293.000
14.60000 310.000
14.81000 274.000
15.02000 284.000
15.23000 298.000
15.44000 287.000
15.65000 286.000
15.86000 277.000
16.07000 285.000
16.28000 279.000
16.49000 268.000
16.70000 271.000
16.91000 290.000
17.12000 313.000
17.33000 289.000
17.54000 273.000
17.75000 280.000
17.96000 277.000
18.17000 282.000
18.38000 296.000
18.59000 305.000
18.80000 306.000
19.01000 311.000
19.22000 302.000
19.43000 317.000
19.64000 285.000
19.85000 278.000
20.06000 299.000
20.27000 294.000
20.48000 334.000
20.69000 458.000
20.90000 863.000
21.11000 612.000
21.32000 373.000
21.53000 317.000
21.74000 339.000
21.95000 303.000
22.16000 314.000
22.37000 309.000
22.58000 315.000
22.79000 338.000
23.00000 306.000
23.21000 306.000
23.42000 315.000
23.63000 293.000
23.84000 316.000
24.05000 426.000
24.26000 639.000
24.47000 450.000
24.68000 437.000
24.89000 486.000
25.10000 394.000
25.31000 347.000
25.52000 338.000
25.73000 345.000
25.94000 386.000
26.15000 440.000
26.36000 930.000
26.57000 2207.000
26.78000 765.000
26.99000 490.000
27.20000 394.000
27.41000 361.000
27.62000 329.000
27.83000 355.000
28.04000 314.000
28.25000 336.000
28.46000 333.000
28.67000 367.000
28.88000 539.000
29.09000 1122.000
29.30000 1714.000
29.51000 697.000
29.72000 442.000
29.93000 329.000
30.14000 290.000
30.35000 294.000
30.56000 290.000
30.77000 250.000
30.98000 248.000
31.19000 247.000
31.40000 263.000
31.61000 270.000
31.82000 270.000
32.03000 343.000
32.24000 705.000
32.45000 424.000
32.66000 293.000
32.87000 236.000
33.08000 241.000
33.29000 234.000
33.50000 220.000
33.71000 237.000
33.92000 250.000
34.13000 245.000
34.34000 228.000
34.55000 209.000
34.76000 223.000
34.97000 265.000
35.18000 239.000
35.39000 194.000
35.60000 207.000
35.81000 201.000
36.02000 217.000
36.23000 243.000
36.44000 232.000
36.65000 198.000
36.86000 194.000
37.07000 179.000
37.28000 178.000
37.49000 187.000
37.70000 177.000
37.91000 169.000
38.12000 156.000
38.33000 179.000
38.54000 155.000
38.75000 161.000
38.96000 157.000
39.17000 137.000
39.38000 146.000
39.59000 151.000
39.80000 149.000
40.01000 147.000
40.22000 149.000
40.43000 168.000
40.64000 163.000
40.85000 146.000
41.06000 157.000
41.27000 167.000
41.48000 147.000
41.69000 156.000
41.90000 149.000
42.11000 163.000
42.32000 181.000
42.53000 212.000
42.74000 228.000
42.95000 164.000
43.16000 171.000
43.37000 163.000
43.58000 143.000
43.79000 154.000
44.00000 172.000
44.21000 168.000
44.42000 254.000
44.63000 267.000
44.84000 251.000
45.05000 197.000
45.26000 168.000
45.47000 173.000
45.68000 210.000
45.89000 228.000
46.10000 173.000
46.31000 177.000
46.52000 220.000
46.73000 184.000
46.94000 153.000
47.15000 150.000
47.36000 143.000
47.57000 134.000
47.78000 132.000
47.99000 126.000
48.20000 112.000
48.41000 134.000
48.62000 135.000
48.83000 147.000
49.04000 140.000
49.25000 136.000
49.46000 147.000
49.67000 159.000
49.88000 150.000
50.09000 149.000
50.30000 146.000
50.51000 191.000
50.72000 238.000
50.93000 332.000
51.14000 254.000
51.35000 199.000
51.56000 150.000
51.77000 160.000
51.98000 146.000
52.19000 123.000
52.40000 147.000
52.61000 155.000
52.82000 135.000
53.03000 141.000
53.24000 132.000
53.45000 121.000
53.66000 131.000
53.87000 121.000
54.08000 149.000
54.29000 207.000
54.50000 276.000
54.71000 295.000
54.92000 187.000
55.13000 139.000
55.34000 132.000
55.55000 113.000
55.76000 122.000
55.97000 121.000
56.18000 125.000
56.39000 119.000
56.60000 121.000
56.81000 116.000
57.02000 121.000
57.23000 126.000
57.44000 135.000
57.65000 129.000
57.86000 126.000
58.07000 109.000
58.28000 124.000
58.49000 126.000
58.70000 118.000
58.91000 127.000
59.12000 128.000
59.33000 142.000
59.54000 117.000
59.75000 136.000
59.96000 140.000
60.17000 129.000
60.38000 132.000
60.59000 130.000
60.80000 114.000
61.01000 122.000
61.22000 120.000
61.43000 142.000
61.64000 108.000
61.85000 130.000
61.98500 111.000