File: ISoD/xrd_data/HSC005IIIcombined_ranges_combined.xy
2.0 1098.0
2.21 830.0
2.42 795.0
2.63 678.0
2.84 641.0
3.05 560.0
3.26 570.0
3.47 535.0
3.68 569.0
3.89 526.0
4.1 519.0
4.31 512.0
4.52 503.0
4.73 554.0
4.94 506.0
5.15 571.0
5.36 573.0
5.57 517.0
5.78 561.0
5.99 555.0
6.2 506.0
6.41 529.0
6.62 505.0
6.83 528.0
7.04 494.0
7.25 507.0
7.46 513.0
7.67 555.0
7.88 510.0
8.09 526.0
8.3 493.0
8.51 501.0
8.72 523.0
8.93 493.0
9.14 542.0
9.35 532.0
9.56 477.0
9.77 516.0
9.98 508.0
10.19 539.0
10.4 484.0
10.61 506.0
10.82 502.0
11.03 526.0
11.24 524.0
11.45 506.0
11.66 538.0
11.87 1057.0
12.08 2862.0
12.29 696.0
12.5 654.0
12.71 584.0
12.92 599.0
13.13 555.0
13.34 546.0
13.55 510.0
13.76 595.0
13.97 524.0
14.18 514.0
14.39 546.0
14.6 594.0
14.81 547.0
15.02 530.0
15.23 622.0
15.44 567.0
15.65 564.0
15.86 593.0
16.07 574.0
16.28 541.0
16.49 600.0
16.7 611.0
16.91 610.0
17.12 616.0
17.33 666.0
17.54 656.0
17.75 742.0
17.96 1039.0
18.17 848.0
18.38 742.0
18.59 707.0
18.8 656.0
19.01 678.0
19.22 698.0
19.43 675.0
19.64 663.0
19.85 674.0
20.06 674.0
20.27 692.0
20.48 764.0
20.69 924.0
20.9 1424.0
21.11 892.0
21.32 778.0
21.53 788.0
21.74 773.0
21.95 748.0
22.16 757.0
22.37 810.0
22.58 818.0
22.79 808.0
23.0 821.0
23.21 857.0
23.42 819.0
23.63 788.0
23.84 867.0
24.05 897.0
24.26 1190.0
24.47 956.0
24.68 1175.0
24.89 1486.0
25.1 1237.0
25.31 960.0
25.52 973.0
25.73 919.0
25.94 926.0
26.15 994.0
26.36 1017.0
26.57 1186.0
26.78 1562.0
26.99 2664.0
27.2 2104.0
27.41 1957.0
27.62 2648.0
27.83 2415.0
28.04 1508.0
28.25 1164.0
28.46 993.0
28.67 932.0
28.88 926.0
29.09 911.0
29.3 971.0
29.51 1139.0
29.72 1174.0
29.93 972.0
30.14 787.0
30.35 680.0
30.56 661.0
30.77 634.0
30.98 657.0
31.19 608.0
31.4 575.0
31.61 612.0
31.82 597.0
32.03 1032.0
32.24 1023.0
32.45 671.0
32.66 576.0
32.87 560.0
33.08 598.0
33.29 539.0
33.5 530.0
33.71 522.0
33.92 509.0
34.13 512.0
34.34 519.0
34.55 530.0
34.76 583.0
34.97 606.0
35.18 587.0
35.39 474.0
35.6 430.0
35.81 484.0
36.02 432.0
36.23 408.0
36.44 438.0
36.65 455.0
36.86 384.0
37.07 371.0
37.28 385.0
37.49 381.0
37.7 377.0
37.91 362.0
38.12 399.0
38.33 359.0
38.54 356.0
38.75 357.0
38.96 405.0
39.17 363.0
39.38 398.0
39.59 443.0
39.8 484.0
40.01 449.0
40.22 406.0
40.43 377.0
40.64 341.0
40.85 391.0
41.06 372.0
41.27 421.0
41.48 353.0
41.69 381.0
41.9 369.0
42.11 392.0
42.32 539.0
42.53 475.0
42.74 526.0
42.95 430.0
43.16 404.0
43.37 399.0
43.58 399.0
43.79 394.0
44.0 435.0
44.21 472.0
44.42 617.0
44.63 651.0
44.84 719.0
45.05 595.0
45.26 433.0
45.47 377.0
45.68 343.0
45.89 358.0
46.1 368.0
46.31 371.0
46.52 377.0
46.73 402.0
46.94 340.0
47.15 342.0
47.36 325.0
47.57 347.0
47.78 313.0
47.99 319.0
48.2 301.0
48.41 304.0
48.62 307.0
48.83 330.0
49.04 320.0
49.25 319.0
49.46 318.0
49.67 310.0
49.88 304.0
50.09 293.0
50.3 284.0
50.51 314.0
50.72 294.0
50.93 351.0
51.14 323.0
51.35 342.0
51.56 289.0
51.77 307.0
51.98 304.0
52.19 288.0
52.4 281.0
52.61 327.0
52.82 305.0
53.03 302.0
53.24 307.0
53.45 285.0
53.66 295.0
53.87 296.0
54.08 312.0
54.29 327.0
54.5 327.0
54.71 284.0
54.92 301.0
55.13 284.0
55.34 291.0
55.55 326.0
55.76 327.0
55.97 418.0
56.18 419.0
56.39 374.0
56.6 376.0
56.81 345.0
57.02 354.0
57.23 372.0
57.44 337.0
57.65 322.0
57.86 276.0
58.07 269.0
58.28 243.0
58.49 290.0
58.7 287.0
58.91 280.0
59.12 266.0
59.33 312.0
59.54 268.0
59.75 266.0
59.96 284.0
60.17 288.0
60.38 285.0
60.59 281.0
60.8 269.0
61.01 269.0
61.22 244.0
61.43 276.0
61.64 276.0
61.85 285.0
61.985 253.0