File: ISoD/xrd_data/HSC090.xy
2.00000 2.000
2.21000 0.000
2.42000 2.000
2.63000 0.000
2.84000 0.000
3.05000 2.000
3.26000 28.000
3.47000 50.000
3.68000 46.000
3.89000 48.000
4.10000 47.000
4.31000 62.000
4.52000 53.000
4.73000 57.000
4.94000 60.000
5.15000 50.000
5.36000 69.000
5.57000 66.000
5.78000 66.000
5.99000 70.000
6.20000 144.000
6.41000 75.000
6.62000 68.000
6.83000 78.000
7.04000 89.000
7.25000 79.000
7.46000 79.000
7.67000 77.000
7.88000 77.000
8.09000 76.000
8.30000 78.000
8.51000 75.000
8.72000 77.000
8.93000 107.000
9.14000 86.000
9.35000 88.000
9.56000 93.000
9.77000 95.000
9.98000 88.000
10.19000 112.000
10.40000 194.000
10.61000 90.000
10.82000 98.000
11.03000 98.000
11.24000 94.000
11.45000 391.000
11.66000 92.000
11.87000 83.000
12.08000 86.000
12.29000 92.000
12.50000 94.000
12.71000 98.000
12.92000 94.000
13.13000 96.000
13.34000 98.000
13.55000 87.000
13.76000 86.000
13.97000 83.000
14.18000 93.000
14.39000 95.000
14.60000 93.000
14.81000 106.000
15.02000 152.000
15.23000 154.000
15.44000 259.000
15.65000 94.000
15.86000 89.000
16.07000 105.000
16.28000 117.000
16.49000 89.000
16.70000 110.000
16.91000 141.000
17.12000 102.000
17.33000 109.000
17.54000 102.000
17.75000 100.000
17.96000 119.000
18.17000 104.000
18.38000 169.000
18.59000 108.000
18.80000 127.000
19.01000 105.000
19.22000 204.000
19.43000 90.000
19.64000 101.000
19.85000 106.000
20.06000 135.000
20.27000 115.000
20.48000 105.000
20.69000 103.000
20.90000 139.000
21.11000 167.000
21.32000 132.000
21.53000 146.000
21.74000 201.000
21.95000 179.000
22.16000 157.000
22.37000 131.000
22.58000 321.000
22.79000 161.000
23.00000 2954.000
23.21000 209.000
23.42000 121.000
23.63000 143.000
23.84000 142.000
24.05000 122.000
24.26000 141.000
24.47000 174.000
24.68000 145.000
24.89000 539.000
25.10000 182.000
25.31000 151.000
25.52000 197.000
25.73000 505.000
25.94000 296.000
26.15000 208.000
26.36000 209.000
26.57000 402.000
26.78000 294.000
26.99000 172.000
27.20000 204.000
27.41000 280.000
27.62000 1085.000
27.83000 360.000
28.04000 168.000
28.25000 172.000
28.46000 169.000
28.67000 1211.000
28.88000 605.000
29.09000 187.000
29.30000 135.000
29.51000 142.000
29.72000 137.000
29.93000 133.000
30.14000 128.000
30.35000 145.000
30.56000 171.000
30.77000 128.000
30.98000 125.000
31.19000 146.000
31.40000 909.000
31.61000 140.000
31.82000 115.000
32.03000 130.000
32.24000 127.000
32.45000 123.000
32.66000 120.000
32.87000 113.000
33.08000 102.000
33.29000 202.000
33.50000 139.000
33.71000 142.000
33.92000 129.000
34.13000 872.000
34.34000 125.000
34.55000 115.000
34.76000 152.000
34.97000 151.000
35.18000 105.000
35.39000 119.000
35.60000 123.000
35.81000 465.000
36.02000 210.000
36.23000 106.000
36.44000 93.000
36.65000 99.000
36.86000 131.000
37.07000 558.000
37.28000 158.000
37.49000 105.000
37.70000 154.000
37.91000 311.000
38.12000 97.000
38.33000 107.000
38.54000 87.000
38.75000 118.000
38.96000 106.000
39.17000 99.000
39.38000 381.000
39.59000 99.000
39.80000 86.000
40.01000 95.000
40.22000 93.000
40.43000 114.000
40.64000 184.000
40.85000 92.000
41.06000 80.000
41.27000 90.000
41.48000 77.000
41.69000 95.000
41.90000 101.000
42.11000 228.000
42.32000 102.000
42.53000 110.000
42.74000 697.000
42.95000 120.000
43.16000 142.000
43.37000 112.000
43.58000 98.000
43.79000 84.000
44.00000 116.000
44.21000 103.000
44.42000 113.000
44.63000 91.000
44.84000 92.000
45.05000 137.000
45.26000 125.000
45.47000 149.000
45.68000 138.000
45.89000 95.000
46.10000 116.000
46.31000 216.000
46.52000 106.000
46.73000 89.000
46.94000 108.000
47.15000 148.000
47.36000 92.000
47.57000 179.000
47.78000 437.000
47.99000 153.000
48.20000 111.000
48.41000 109.000
48.62000 100.000
48.83000 97.000
49.04000 139.000
49.25000 95.000
49.46000 156.000
49.67000 162.000
49.88000 237.000
50.09000 179.000
50.30000 117.000
50.51000 121.000
50.72000 105.000
50.93000 110.000
51.14000 418.000
51.35000 161.000
51.56000 131.000
51.77000 120.000
51.98000 308.000
52.19000 145.000
52.40000 115.000
52.61000 123.000
52.82000 149.000
53.03000 371.000
53.24000 224.000
53.45000 125.000
53.66000 114.000
53.87000 363.000
54.08000 146.000
54.29000 99.000
54.50000 97.000
54.71000 117.000
54.92000 129.000
55.13000 217.000
55.34000 185.000
55.55000 142.000
55.76000 330.000
55.97000 151.000
56.18000 131.000
56.39000 120.000
56.60000 334.000
56.81000 197.000
57.02000 152.000
57.23000 234.000
57.44000 204.000
57.65000 197.000
57.86000 160.000
58.07000 121.000
58.28000 115.000
58.49000 101.000
58.70000 109.000
58.91000 123.000
59.12000 160.000
59.33000 111.000
59.54000 126.000
59.75000 146.000
59.96000 184.000
60.17000 161.000
60.38000 142.000
60.59000 151.000
60.80000 101.000
61.01000 110.000
61.22000 116.000
61.43000 101.000
61.64000 203.000
61.85000 106.000
61.98500 103.000