File: ISoD/xrd_data/HSC055.xy
2.00000 11.000
2.21000 12.000
2.42000 11.000
2.63000 18.000
2.84000 15.000
3.05000 7.000
3.26000 17.000
3.47000 230.000
3.68000 336.000
3.89000 377.000
4.10000 406.000
4.31000 485.000
4.52000 487.000
4.73000 491.000
4.94000 556.000
5.15000 531.000
5.36000 568.000
5.57000 590.000
5.78000 622.000
5.99000 611.000
6.20000 691.000
6.41000 677.000
6.62000 700.000
6.83000 710.000
7.04000 682.000
7.25000 691.000
7.46000 726.000
7.67000 738.000
7.88000 709.000
8.09000 746.000
8.30000 768.000
8.51000 756.000
8.72000 795.000
8.93000 803.000
9.14000 777.000
9.35000 813.000
9.56000 814.000
9.77000 818.000
9.98000 790.000
10.19000 834.000
10.40000 839.000
10.61000 785.000
10.82000 817.000
11.03000 831.000
11.24000 874.000
11.45000 859.000
11.66000 892.000
11.87000 1026.000
12.08000 4327.000
12.29000 28353.000
12.50000 3096.000
12.71000 1073.000
12.92000 913.000
13.13000 994.000
13.34000 2430.000
13.55000 1452.000
13.76000 4081.000
13.97000 961.000
14.18000 849.000
14.39000 832.000
14.60000 846.000
14.81000 839.000
15.02000 855.000
15.23000 816.000
15.44000 828.000
15.65000 840.000
15.86000 893.000
16.07000 890.000
16.28000 1087.000
16.49000 2175.000
16.70000 1347.000
16.91000 1751.000
17.12000 919.000
17.33000 884.000
17.54000 904.000
17.75000 904.000
17.96000 1205.000
18.17000 1124.000
18.38000 1107.000
18.59000 988.000
18.80000 958.000
19.01000 924.000
19.22000 1182.000
19.43000 3487.000
19.64000 4760.000
19.85000 1047.000
20.06000 926.000
20.27000 912.000
20.48000 984.000
20.69000 919.000
20.90000 912.000
21.11000 913.000
21.32000 924.000
21.53000 1163.000
21.74000 2653.000
21.95000 2148.000
22.16000 1640.000
22.37000 1007.000
22.58000 936.000
22.79000 993.000
23.00000 943.000
23.21000 999.000
23.42000 973.000
23.63000 1013.000
23.84000 1142.000
24.05000 1042.000
24.26000 1204.000
24.47000 1054.000
24.68000 2462.000
24.89000 1648.000
25.10000 4795.000
25.31000 2621.000
25.52000 2033.000
25.73000 10250.000
25.94000 1930.000
26.15000 2785.000
26.36000 3186.000
26.57000 1391.000
26.78000 1381.000
26.99000 2961.000
27.20000 2610.000
27.41000 1609.000
27.62000 3521.000
27.83000 12154.000
28.04000 1496.000
28.25000 1135.000
28.46000 1256.000
28.67000 1071.000
28.88000 1045.000
29.09000 1014.000
29.30000 865.000
29.51000 942.000
29.72000 984.000
29.93000 1251.000
30.14000 3970.000
30.35000 1482.000
30.56000 1238.000
30.77000 2836.000
30.98000 1172.000
31.19000 1095.000
31.40000 818.000
31.61000 1374.000
31.82000 1038.000
32.03000 1019.000
32.24000 970.000
32.45000 848.000
32.66000 698.000
32.87000 683.000
33.08000 749.000
33.29000 875.000
33.50000 916.000
33.71000 1300.000
33.92000 972.000
34.13000 914.000
34.34000 723.000
34.55000 814.000
34.76000 831.000
34.97000 1216.000
35.18000 752.000
35.39000 672.000
35.60000 593.000
35.81000 774.000
36.02000 574.000
36.23000 532.000
36.44000 524.000
36.65000 536.000
36.86000 557.000
37.07000 977.000
37.28000 545.000
37.49000 486.000
37.70000 496.000
37.91000 570.000
38.12000 601.000
38.33000 887.000
38.54000 576.000
38.75000 474.000
38.96000 560.000
39.17000 607.000
39.38000 603.000
39.59000 627.000
39.80000 638.000
40.01000 636.000
40.22000 535.000
40.43000 612.000
40.64000 891.000
40.85000 681.000
41.06000 870.000
41.27000 1026.000
41.48000 535.000
41.69000 581.000
41.90000 703.000
42.11000 1100.000
42.32000 623.000
42.53000 606.000
42.74000 658.000
42.95000 496.000
43.16000 483.000
43.37000 478.000
43.58000 478.000
43.79000 557.000
44.00000 523.000
44.21000 895.000
44.42000 589.000
44.63000 759.000
44.84000 592.000
45.05000 725.000
45.26000 527.000
45.47000 497.000
45.68000 501.000
45.89000 476.000
46.10000 498.000
46.31000 637.000
46.52000 541.000
46.73000 638.000
46.94000 829.000
47.15000 741.000
47.36000 587.000
47.57000 641.000
47.78000 549.000
47.99000 473.000
48.20000 512.000
48.41000 570.000
48.62000 468.000
48.83000 451.000
49.04000 623.000
49.25000 463.000
49.46000 550.000
49.67000 932.000
49.88000 455.000
50.09000 502.000
50.30000 663.000
50.51000 821.000
50.72000 492.000
50.93000 436.000
51.14000 473.000
51.35000 560.000
51.56000 619.000
51.77000 642.000
51.98000 544.000
52.19000 531.000
52.40000 437.000
52.61000 425.000
52.82000 439.000
53.03000 533.000
53.24000 553.000
53.45000 794.000
53.66000 524.000
53.87000 496.000
54.08000 715.000
54.29000 455.000
54.50000 469.000
54.71000 527.000
54.92000 706.000
55.13000 942.000
55.34000 585.000
55.55000 477.000
55.76000 483.000
55.97000 434.000
56.18000 396.000
56.39000 393.000
56.60000 542.000
56.81000 556.000
57.02000 529.000
57.23000 595.000
57.44000 672.000
57.65000 459.000
57.86000 380.000
58.07000 444.000
58.28000 429.000
58.49000 387.000
58.70000 394.000
58.91000 409.000
59.12000 387.000
59.33000 380.000
59.54000 377.000
59.75000 415.000
59.96000 550.000
60.17000 493.000
60.38000 564.000
60.59000 418.000
60.80000 398.000
61.01000 426.000
61.22000 364.000
61.43000 347.000
61.64000 342.000
61.85000 353.000
61.98500 339.000