File: ISoD/xrd_data/HSC006B_ranges_combined.xy
2.0 1071.0
2.21 1095.0
2.42 692.0
2.63 458.0
2.84 370.0
3.05 338.0
3.26 293.0
3.47 287.0
3.68 275.0
3.89 254.0
4.1 275.0
4.31 255.0
4.52 237.0
4.73 241.0
4.94 242.0
5.15 241.0
5.36 225.0
5.57 226.0
5.78 233.0
5.99 241.0
6.2 200.0
6.41 217.0
6.62 225.0
6.83 222.0
7.04 228.0
7.25 236.0
7.46 240.0
7.67 237.0
7.88 230.0
8.09 236.0
8.3 231.0
8.51 255.0
8.72 239.0
8.93 234.0
9.14 223.0
9.35 221.0
9.56 254.0
9.77 230.0
9.98 248.0
10.19 259.0
10.4 257.0
10.61 237.0
10.82 271.0
11.03 265.0
11.24 272.0
11.45 281.0
11.66 270.0
11.87 267.0
12.08 261.0
12.29 296.0
12.5 291.0
12.71 306.0
12.92 336.0
13.13 330.0
13.34 338.0
13.55 325.0
13.76 325.0
13.97 367.0
14.18 354.0
14.39 372.0
14.6 358.0
14.81 375.0
15.02 353.0
15.23 384.0
15.44 388.0
15.65 367.0
15.86 407.0
16.07 403.0
16.28 391.0
16.49 419.0
16.7 429.0
16.91 390.0
17.12 413.0
17.33 380.0
17.54 416.0
17.75 409.0
17.96 400.0
18.17 417.0
18.38 468.0
18.59 610.0
18.8 626.0
19.01 501.0
19.22 406.0
19.43 428.0
19.64 447.0
19.85 440.0
20.06 472.0
20.27 457.0
20.48 456.0
20.69 448.0
20.9 439.0
21.11 435.0
21.32 472.0
21.53 457.0
21.74 459.0
21.95 450.0
22.16 447.0
22.37 444.0
22.58 459.0
22.79 479.0
23.0 450.0
23.21 468.0
23.42 499.0
23.63 497.0
23.84 550.0
24.05 604.0
24.26 753.0
24.47 747.0
24.68 586.0
24.89 511.0
25.1 525.0
25.31 486.0
25.52 488.0
25.73 487.0
25.94 460.0
26.15 490.0
26.36 470.0
26.57 468.0
26.78 478.0
26.99 490.0
27.2 456.0
27.41 481.0
27.62 528.0
27.83 847.0
28.04 826.0
28.25 471.0
28.46 419.0
28.67 425.0
28.88 424.0
29.09 442.0
29.3 404.0
29.51 404.0
29.72 415.0
29.93 387.0
30.14 378.0
30.35 446.0
30.56 436.0
30.77 431.0
30.98 402.0
31.19 342.0
31.4 366.0
31.61 367.0
31.82 352.0
32.03 354.0
32.24 347.0
32.45 338.0
32.66 370.0
32.87 316.0
33.08 345.0
33.29 334.0
33.5 299.0
33.71 315.0
33.92 306.0
34.13 277.0
34.34 285.0
34.55 308.0
34.76 294.0
34.97 284.0
35.18 295.0
35.39 288.0
35.6 301.0
35.81 291.0
36.02 297.0
36.23 280.0
36.44 265.0
36.65 264.0
36.86 286.0
37.07 296.0
37.28 261.0
37.49 281.0
37.7 253.0
37.91 257.0
38.12 273.0
38.33 241.0
38.54 275.0
38.75 253.0
38.96 241.0
39.17 261.0
39.38 240.0
39.59 268.0
39.8 243.0
40.01 278.0
40.22 250.0
40.43 240.0
40.64 234.0
40.85 282.0
41.06 259.0
41.27 261.0
41.48 263.0
41.69 273.0
41.9 256.0
42.11 288.0
42.32 271.0
42.53 256.0
42.74 251.0
42.95 256.0
43.16 258.0
43.37 291.0
43.58 278.0
43.79 278.0
44.0 290.0
44.21 272.0
44.42 251.0
44.63 257.0
44.84 282.0
45.05 266.0
45.26 288.0
45.47 257.0
45.68 247.0
45.89 252.0
46.1 266.0
46.31 252.0
46.52 261.0
46.73 256.0
46.94 251.0
47.15 265.0
47.36 248.0
47.57 261.0
47.78 233.0
47.99 261.0
48.2 233.0
48.41 255.0
48.62 226.0
48.83 267.0
49.04 255.0
49.25 232.0
49.46 256.0
49.67 259.0
49.88 244.0
50.09 239.0
50.3 247.0
50.51 244.0
50.72 230.0
50.93 237.0
51.14 265.0
51.35 246.0
51.56 234.0
51.77 250.0
51.98 235.0
52.19 238.0
52.4 224.0
52.61 223.0
52.82 239.0
53.03 230.0
53.24 232.0
53.45 230.0
53.66 231.0
53.87 202.0
54.08 228.0
54.29 216.0
54.5 209.0
54.71 216.0
54.92 246.0
55.13 231.0
55.34 225.0
55.55 214.0
55.76 219.0
55.97 210.0
56.18 234.0
56.39 220.0
56.6 203.0
56.81 219.0
57.02 224.0
57.23 204.0
57.44 204.0
57.65 238.0
57.86 197.0
58.07 213.0
58.28 189.0
58.49 210.0
58.7 213.0
58.91 208.0
59.12 196.0
59.33 173.0
59.54 213.0
59.75 196.0
59.96 190.0
60.17 177.0
60.38 186.0
60.59 208.0
60.8 196.0
61.01 177.0
61.22 195.0
61.43 193.0
61.64 173.0
61.85 202.0
61.985 180.0