File: ISoD/xrd_data/HSC059.xy
2.00000    7.000
2.21000    7.000
2.42000    8.000
2.63000    6.000
2.84000    7.000
3.05000    6.000
3.26000    173.000
3.47000    510.000
3.68000    475.000
3.89000    477.000
4.10000    455.000
4.31000    455.000
4.52000    500.000
4.73000    471.000
4.94000    457.000
5.15000    476.000
5.36000    465.000
5.57000    506.000
5.78000    465.000
5.99000    488.000
6.20000    471.000
6.41000    504.000
6.62000    446.000
6.83000    482.000
7.04000    519.000
7.25000    523.000
7.46000    521.000
7.67000    528.000
7.88000    507.000
8.09000    532.000
8.30000    548.000
8.51000    543.000
8.72000    543.000
8.93000    553.000
9.14000    559.000
9.35000    571.000
9.56000    596.000
9.77000    542.000
9.98000    614.000
10.19000    588.000
10.40000    617.000
10.61000    604.000
10.82000    625.000
11.03000    626.000
11.24000    652.000
11.45000    651.000
11.66000    615.000
11.87000    658.000
12.08000    673.000
12.29000    736.000
12.50000    834.000
12.71000    990.000
12.92000    995.000
13.13000    982.000
13.34000    976.000
13.55000    902.000
13.76000    919.000
13.97000    842.000
14.18000    846.000
14.39000    827.000
14.60000    817.000
14.81000    773.000
15.02000    804.000
15.23000    777.000
15.44000    748.000
15.65000    814.000
15.86000    782.000
16.07000    792.000
16.28000    786.000
16.49000    801.000
16.70000    746.000
16.91000    786.000
17.12000    807.000
17.33000    806.000
17.54000    794.000
17.75000    798.000
17.96000    792.000
18.17000    825.000
18.38000    808.000
18.59000    818.000
18.80000    795.000
19.01000    851.000
19.22000    806.000
19.43000    792.000
19.64000    736.000
19.85000    798.000
20.06000    811.000
20.27000    768.000
20.48000    808.000
20.69000    812.000
20.90000    795.000
21.11000    824.000
21.32000    839.000
21.53000    881.000
21.74000    810.000
21.95000    766.000
22.16000    796.000
22.37000    815.000
22.58000    810.000
22.79000    777.000
23.00000    752.000
23.21000    802.000
23.42000    783.000
23.63000    821.000
23.84000    811.000
24.05000    820.000
24.26000    799.000
24.47000    869.000
24.68000    886.000
24.89000    908.000
25.10000    931.000
25.31000    969.000
25.52000    1025.000
25.73000    1082.000
25.94000    1225.000
26.15000    1328.000
26.36000    1419.000
26.57000    1726.000
26.78000    2025.000
26.99000    2409.000
27.20000    2609.000
27.41000    2801.000
27.62000    2696.000
27.83000    2258.000
28.04000    1788.000
28.25000    1494.000
28.46000    1193.000
28.67000    1098.000
28.88000    942.000
29.09000    909.000
29.30000    835.000
29.51000    827.000
29.72000    780.000
29.93000    741.000
30.14000    671.000
30.35000    685.000
30.56000    683.000
30.77000    681.000
30.98000    654.000
31.19000    609.000
31.40000    606.000
31.61000    616.000
31.82000    570.000
32.03000    539.000
32.24000    544.000
32.45000    496.000
32.66000    515.000
32.87000    523.000
33.08000    494.000
33.29000    497.000
33.50000    489.000
33.71000    466.000
33.92000    505.000
34.13000    454.000
34.34000    446.000
34.55000    441.000
34.76000    419.000
34.97000    451.000
35.18000    429.000
35.39000    437.000
35.60000    429.000
35.81000    432.000
36.02000    396.000
36.23000    397.000
36.44000    404.000
36.65000    396.000
36.86000    423.000
37.07000    379.000
37.28000    380.000
37.49000    387.000
37.70000    363.000
37.91000    354.000
38.12000    338.000
38.33000    352.000
38.54000    378.000
38.75000    388.000
38.96000    341.000
39.17000    372.000
39.38000    356.000
39.59000    372.000
39.80000    355.000
40.01000    369.000
40.22000    349.000
40.43000    381.000
40.64000    372.000
40.85000    341.000
41.06000    368.000
41.27000    356.000
41.48000    341.000
41.69000    343.000
41.90000    387.000
42.11000    346.000
42.32000    345.000
42.53000    337.000
42.74000    369.000
42.95000    382.000
43.16000    387.000
43.37000    372.000
43.58000    414.000
43.79000    386.000
44.00000    365.000
44.21000    414.000
44.42000    410.000
44.63000    364.000
44.84000    405.000
45.05000    384.000
45.26000    376.000
45.47000    379.000
45.68000    376.000
45.89000    365.000
46.10000    364.000
46.31000    374.000
46.52000    388.000
46.73000    359.000
46.94000    355.000
47.15000    358.000
47.36000    357.000
47.57000    337.000
47.78000    340.000
47.99000    333.000
48.20000    339.000
48.41000    333.000
48.62000    323.000
48.83000    317.000
49.04000    323.000
49.25000    288.000
49.46000    307.000
49.67000    295.000
49.88000    321.000
50.09000    303.000
50.30000    300.000
50.51000    319.000
50.72000    288.000
50.93000    303.000
51.14000    296.000
51.35000    323.000
51.56000    293.000
51.77000    312.000
51.98000    283.000
52.19000    308.000
52.40000    276.000
52.61000    268.000
52.82000    313.000
53.03000    295.000
53.24000    279.000
53.45000    310.000
53.66000    301.000
53.87000    290.000
54.08000    284.000
54.29000    326.000
54.50000    292.000
54.71000    296.000
54.92000    304.000
55.13000    299.000
55.34000    305.000
55.55000    314.000
55.76000    301.000
55.97000    303.000
56.18000    298.000
56.39000    294.000
56.60000    301.000
56.81000    312.000
57.02000    315.000
57.23000    295.000
57.44000    289.000
57.65000    273.000
57.86000    256.000
58.07000    251.000
58.28000    276.000
58.49000    270.000
58.70000    269.000
58.91000    240.000
59.12000    263.000
59.33000    243.000
59.54000    235.000
59.75000    236.000
59.96000    231.000
60.17000    243.000
60.38000    238.000
60.59000    235.000
60.80000    231.000
61.01000    230.000
61.22000    226.000
61.43000    252.000
61.64000    226.000
61.85000    213.000
61.98500    224.000