File: ISoD/xrd_data/HSC087_gewII.xy
2.00000 1.000
2.21000 2.000
2.42000 5.000
2.63000 1.000
2.84000 4.000
3.05000 2.000
3.26000 124.000
3.47000 129.000
3.68000 159.000
3.89000 152.000
4.10000 135.000
4.31000 174.000
4.52000 159.000
4.73000 166.000
4.94000 158.000
5.15000 168.000
5.36000 201.000
5.57000 165.000
5.78000 202.000
5.99000 237.000
6.20000 490.000
6.41000 741.000
6.62000 274.000
6.83000 208.000
7.04000 220.000
7.25000 212.000
7.46000 211.000
7.67000 223.000
7.88000 231.000
8.09000 229.000
8.30000 269.000
8.51000 269.000
8.72000 246.000
8.93000 283.000
9.14000 236.000
9.35000 277.000
9.56000 320.000
9.77000 594.000
9.98000 543.000
10.19000 769.000
10.40000 905.000
10.61000 537.000
10.82000 353.000
11.03000 272.000
11.24000 244.000
11.45000 225.000
11.66000 217.000
11.87000 246.000
12.08000 261.000
12.29000 273.000
12.50000 329.000
12.71000 358.000
12.92000 291.000
13.13000 268.000
13.34000 236.000
13.55000 236.000
13.76000 235.000
13.97000 230.000
14.18000 247.000
14.39000 220.000
14.60000 251.000
14.81000 250.000
15.02000 294.000
15.23000 268.000
15.44000 339.000
15.65000 291.000
15.86000 267.000
16.07000 261.000
16.28000 257.000
16.49000 271.000
16.70000 261.000
16.91000 292.000
17.12000 426.000
17.33000 425.000
17.54000 331.000
17.75000 323.000
17.96000 459.000
18.17000 328.000
18.38000 317.000
18.59000 320.000
18.80000 379.000
19.01000 311.000
19.22000 484.000
19.43000 348.000
19.64000 336.000
19.85000 362.000
20.06000 274.000
20.27000 244.000
20.48000 256.000
20.69000 281.000
20.90000 292.000
21.11000 276.000
21.32000 294.000
21.53000 252.000
21.74000 259.000
21.95000 254.000
22.16000 263.000
22.37000 241.000
22.58000 255.000
22.79000 247.000
23.00000 275.000
23.21000 269.000
23.42000 271.000
23.63000 255.000
23.84000 305.000
24.05000 274.000
24.26000 324.000
24.47000 427.000
24.68000 483.000
24.89000 524.000
25.10000 560.000
25.31000 472.000
25.52000 470.000
25.73000 569.000
25.94000 734.000
26.15000 919.000
26.36000 759.000
26.57000 815.000
26.78000 672.000
26.99000 655.000
27.20000 716.000
27.41000 762.000
27.62000 1194.000
27.83000 847.000
28.04000 782.000
28.25000 777.000
28.46000 807.000
28.67000 656.000
28.88000 466.000
29.09000 392.000
29.30000 422.000
29.51000 335.000
29.72000 339.000
29.93000 336.000
30.14000 324.000
30.35000 373.000
30.56000 472.000
30.77000 364.000
30.98000 386.000
31.19000 360.000
31.40000 290.000
31.61000 310.000
31.82000 257.000
32.03000 274.000
32.24000 252.000
32.45000 231.000
32.66000 236.000
32.87000 225.000
33.08000 236.000
33.29000 209.000
33.50000 206.000
33.71000 248.000
33.92000 216.000
34.13000 215.000
34.34000 244.000
34.55000 232.000
34.76000 215.000
34.97000 222.000
35.18000 207.000
35.39000 208.000
35.60000 181.000
35.81000 246.000
36.02000 217.000
36.23000 266.000
36.44000 273.000
36.65000 234.000
36.86000 204.000
37.07000 192.000
37.28000 172.000
37.49000 187.000
37.70000 217.000
37.91000 195.000
38.12000 145.000
38.33000 153.000
38.54000 176.000
38.75000 177.000
38.96000 173.000
39.17000 176.000
39.38000 153.000
39.59000 146.000
39.80000 186.000
40.01000 228.000
40.22000 196.000
40.43000 180.000
40.64000 168.000
40.85000 185.000
41.06000 148.000
41.27000 165.000
41.48000 149.000
41.69000 167.000
41.90000 133.000
42.11000 135.000
42.32000 148.000
42.53000 136.000
42.74000 151.000
42.95000 138.000
43.16000 139.000
43.37000 148.000
43.58000 132.000
43.79000 124.000
44.00000 131.000
44.21000 140.000
44.42000 134.000
44.63000 130.000
44.84000 122.000
45.05000 131.000
45.26000 121.000
45.47000 154.000
45.68000 147.000
45.89000 128.000
46.10000 126.000
46.31000 156.000
46.52000 120.000
46.73000 131.000
46.94000 158.000
47.15000 152.000
47.36000 147.000
47.57000 145.000
47.78000 162.000
47.99000 131.000
48.20000 118.000
48.41000 133.000
48.62000 130.000
48.83000 139.000
49.04000 156.000
49.25000 128.000
49.46000 136.000
49.67000 136.000
49.88000 155.000
50.09000 157.000
50.30000 154.000
50.51000 146.000
50.72000 152.000
50.93000 127.000
51.14000 135.000
51.35000 138.000
51.56000 117.000
51.77000 116.000
51.98000 115.000
52.19000 114.000
52.40000 124.000
52.61000 114.000
52.82000 135.000
53.03000 123.000
53.24000 124.000
53.45000 138.000
53.66000 132.000
53.87000 129.000
54.08000 144.000
54.29000 117.000
54.50000 137.000
54.71000 137.000
54.92000 148.000
55.13000 144.000
55.34000 130.000
55.55000 127.000
55.76000 141.000
55.97000 128.000
56.18000 136.000
56.39000 127.000
56.60000 114.000
56.81000 132.000
57.02000 106.000
57.23000 114.000
57.44000 115.000
57.65000 96.000
57.86000 111.000
58.07000 125.000
58.28000 106.000
58.49000 123.000
58.70000 128.000
58.91000 109.000
59.12000 114.000
59.33000 101.000
59.54000 110.000
59.75000 104.000
59.96000 105.000
60.17000 92.000
60.38000 98.000
60.59000 103.000
60.80000 100.000
61.01000 108.000
61.22000 101.000
61.43000 91.000
61.64000 91.000
61.85000 100.000
61.98500 103.000