File: ISoD/xrd_data/HSC091_gew.xy
2.00000 1.000
2.21000 1.000
2.42000 4.000
2.63000 5.000
2.84000 4.000
3.05000 4.000
3.26000 352.000
3.47000 441.000
3.68000 365.000
3.89000 338.000
4.10000 328.000
4.31000 326.000
4.52000 291.000
4.73000 279.000
4.94000 280.000
5.15000 265.000
5.36000 264.000
5.57000 276.000
5.78000 245.000
5.99000 264.000
6.20000 285.000
6.41000 229.000
6.62000 253.000
6.83000 261.000
7.04000 270.000
7.25000 284.000
7.46000 279.000
7.67000 277.000
7.88000 328.000
8.09000 359.000
8.30000 345.000
8.51000 302.000
8.72000 306.000
8.93000 306.000
9.14000 289.000
9.35000 313.000
9.56000 266.000
9.77000 306.000
9.98000 319.000
10.19000 289.000
10.40000 310.000
10.61000 277.000
10.82000 294.000
11.03000 305.000
11.24000 279.000
11.45000 283.000
11.66000 291.000
11.87000 318.000
12.08000 301.000
12.29000 306.000
12.50000 306.000
12.71000 289.000
12.92000 305.000
13.13000 296.000
13.34000 324.000
13.55000 286.000
13.76000 321.000
13.97000 329.000
14.18000 357.000
14.39000 338.000
14.60000 338.000
14.81000 338.000
15.02000 312.000
15.23000 329.000
15.44000 335.000
15.65000 327.000
15.86000 338.000
16.07000 358.000
16.28000 317.000
16.49000 379.000
16.70000 362.000
16.91000 352.000
17.12000 338.000
17.33000 355.000
17.54000 336.000
17.75000 357.000
17.96000 300.000
18.17000 347.000
18.38000 324.000
18.59000 282.000
18.80000 313.000
19.01000 323.000
19.22000 308.000
19.43000 361.000
19.64000 362.000
19.85000 319.000
20.06000 335.000
20.27000 332.000
20.48000 345.000
20.69000 330.000
20.90000 345.000
21.11000 374.000
21.32000 414.000
21.53000 346.000
21.74000 370.000
21.95000 359.000
22.16000 378.000
22.37000 364.000
22.58000 428.000
22.79000 389.000
23.00000 395.000
23.21000 453.000
23.42000 397.000
23.63000 416.000
23.84000 473.000
24.05000 427.000
24.26000 474.000
24.47000 442.000
24.68000 469.000
24.89000 465.000
25.10000 467.000
25.31000 486.000
25.52000 463.000
25.73000 546.000
25.94000 501.000
26.15000 546.000
26.36000 558.000
26.57000 580.000
26.78000 643.000
26.99000 728.000
27.20000 843.000
27.41000 1144.000
27.62000 1563.000
27.83000 2056.000
28.04000 1354.000
28.25000 812.000
28.46000 658.000
28.67000 589.000
28.88000 499.000
29.09000 503.000
29.30000 502.000
29.51000 499.000
29.72000 517.000
29.93000 473.000
30.14000 441.000
30.35000 405.000
30.56000 439.000
30.77000 516.000
30.98000 435.000
31.19000 411.000
31.40000 397.000
31.61000 340.000
31.82000 341.000
32.03000 339.000
32.24000 320.000
32.45000 362.000
32.66000 386.000
32.87000 334.000
33.08000 302.000
33.29000 286.000
33.50000 314.000
33.71000 304.000
33.92000 311.000
34.13000 275.000
34.34000 285.000
34.55000 290.000
34.76000 293.000
34.97000 259.000
35.18000 319.000
35.39000 329.000
35.60000 287.000
35.81000 329.000
36.02000 307.000
36.23000 297.000
36.44000 292.000
36.65000 288.000
36.86000 270.000
37.07000 323.000
37.28000 300.000
37.49000 309.000
37.70000 254.000
37.91000 260.000
38.12000 267.000
38.33000 253.000
38.54000 254.000
38.75000 256.000
38.96000 280.000
39.17000 268.000
39.38000 279.000
39.59000 257.000
39.80000 248.000
40.01000 246.000
40.22000 262.000
40.43000 265.000
40.64000 233.000
40.85000 257.000
41.06000 249.000
41.27000 262.000
41.48000 232.000
41.69000 257.000
41.90000 224.000
42.11000 223.000
42.32000 219.000
42.53000 222.000
42.74000 249.000
42.95000 251.000
43.16000 266.000
43.37000 263.000
43.58000 282.000
43.79000 248.000
44.00000 241.000
44.21000 257.000
44.42000 246.000
44.63000 247.000
44.84000 250.000
45.05000 235.000
45.26000 226.000
45.47000 253.000
45.68000 225.000
45.89000 215.000
46.10000 213.000
46.31000 215.000
46.52000 211.000
46.73000 222.000
46.94000 205.000
47.15000 209.000
47.36000 218.000
47.57000 206.000
47.78000 193.000
47.99000 202.000
48.20000 193.000
48.41000 203.000
48.62000 210.000
48.83000 197.000
49.04000 190.000
49.25000 179.000
49.46000 190.000
49.67000 199.000
49.88000 186.000
50.09000 187.000
50.30000 198.000
50.51000 191.000
50.72000 199.000
50.93000 193.000
51.14000 195.000
51.35000 184.000
51.56000 184.000
51.77000 185.000
51.98000 181.000
52.19000 174.000
52.40000 195.000
52.61000 163.000
52.82000 190.000
53.03000 170.000
53.24000 202.000
53.45000 167.000
53.66000 202.000
53.87000 185.000
54.08000 195.000
54.29000 184.000
54.50000 170.000
54.71000 188.000
54.92000 174.000
55.13000 183.000
55.34000 175.000
55.55000 184.000
55.76000 174.000
55.97000 191.000
56.18000 177.000
56.39000 195.000
56.60000 170.000
56.81000 185.000
57.02000 191.000
57.23000 201.000
57.44000 212.000
57.65000 205.000
57.86000 179.000
58.07000 182.000
58.28000 175.000
58.49000 176.000
58.70000 188.000
58.91000 157.000
59.12000 151.000
59.33000 147.000
59.54000 161.000
59.75000 142.000
59.96000 148.000
60.17000 149.000
60.38000 136.000
60.59000 154.000
60.80000 145.000
61.01000 158.000
61.22000 156.000
61.43000 154.000
61.64000 161.000
61.85000 140.000
61.98500 174.000