File: ISoD/xrd_data/HSC071.xy
2.00000 1.000
2.21000 4.000
2.42000 1.000
2.63000 0.000
2.84000 3.000
3.05000 121.000
3.26000 312.000
3.47000 323.000
3.68000 316.000
3.89000 293.000
4.10000 316.000
4.31000 290.000
4.52000 317.000
4.73000 292.000
4.94000 326.000
5.15000 350.000
5.36000 312.000
5.57000 315.000
5.78000 317.000
5.99000 326.000
6.20000 359.000
6.41000 346.000
6.62000 356.000
6.83000 336.000
7.04000 365.000
7.25000 340.000
7.46000 362.000
7.67000 351.000
7.88000 374.000
8.09000 401.000
8.30000 379.000
8.51000 384.000
8.72000 395.000
8.93000 389.000
9.14000 363.000
9.35000 381.000
9.56000 376.000
9.77000 391.000
9.98000 386.000
10.19000 402.000
10.40000 457.000
10.61000 475.000
10.82000 472.000
11.03000 562.000
11.24000 456.000
11.45000 434.000
11.66000 471.000
11.87000 522.000
12.08000 608.000
12.29000 510.000
12.50000 419.000
12.71000 434.000
12.92000 381.000
13.13000 380.000
13.34000 391.000
13.55000 391.000
13.76000 378.000
13.97000 418.000
14.18000 392.000
14.39000 373.000
14.60000 398.000
14.81000 377.000
15.02000 405.000
15.23000 405.000
15.44000 390.000
15.65000 400.000
15.86000 355.000
16.07000 408.000
16.28000 387.000
16.49000 389.000
16.70000 385.000
16.91000 407.000
17.12000 412.000
17.33000 424.000
17.54000 426.000
17.75000 421.000
17.96000 402.000
18.17000 405.000
18.38000 407.000
18.59000 419.000
18.80000 460.000
19.01000 406.000
19.22000 429.000
19.43000 449.000
19.64000 423.000
19.85000 435.000
20.06000 439.000
20.27000 437.000
20.48000 467.000
20.69000 472.000
20.90000 562.000
21.11000 552.000
21.32000 508.000
21.53000 477.000
21.74000 453.000
21.95000 414.000
22.16000 452.000
22.37000 463.000
22.58000 418.000
22.79000 481.000
23.00000 417.000
23.21000 441.000
23.42000 420.000
23.63000 475.000
23.84000 462.000
24.05000 482.000
24.26000 503.000
24.47000 502.000
24.68000 490.000
24.89000 553.000
25.10000 527.000
25.31000 531.000
25.52000 519.000
25.73000 551.000
25.94000 579.000
26.15000 686.000
26.36000 910.000
26.57000 764.000
26.78000 668.000
26.99000 618.000
27.20000 607.000
27.41000 571.000
27.62000 595.000
27.83000 656.000
28.04000 781.000
28.25000 623.000
28.46000 486.000
28.67000 507.000
28.88000 553.000
29.09000 655.000
29.30000 579.000
29.51000 475.000
29.72000 426.000
29.93000 413.000
30.14000 379.000
30.35000 368.000
30.56000 328.000
30.77000 366.000
30.98000 345.000
31.19000 345.000
31.40000 320.000
31.61000 328.000
31.82000 343.000
32.03000 340.000
32.24000 411.000
32.45000 369.000
32.66000 363.000
32.87000 296.000
33.08000 294.000
33.29000 303.000
33.50000 317.000
33.71000 294.000
33.92000 279.000
34.13000 268.000
34.34000 268.000
34.55000 275.000
34.76000 246.000
34.97000 244.000
35.18000 263.000
35.39000 238.000
35.60000 237.000
35.81000 256.000
36.02000 227.000
36.23000 234.000
36.44000 228.000
36.65000 240.000
36.86000 221.000
37.07000 223.000
37.28000 199.000
37.49000 216.000
37.70000 196.000
37.91000 206.000
38.12000 204.000
38.33000 215.000
38.54000 197.000
38.75000 200.000
38.96000 193.000
39.17000 207.000
39.38000 221.000
39.59000 183.000
39.80000 193.000
40.01000 192.000
40.22000 181.000
40.43000 195.000
40.64000 192.000
40.85000 191.000
41.06000 191.000
41.27000 190.000
41.48000 210.000
41.69000 201.000
41.90000 205.000
42.11000 189.000
42.32000 199.000
42.53000 198.000
42.74000 224.000
42.95000 205.000
43.16000 211.000
43.37000 189.000
43.58000 187.000
43.79000 168.000
44.00000 185.000
44.21000 177.000
44.42000 170.000
44.63000 200.000
44.84000 226.000
45.05000 189.000
45.26000 204.000
45.47000 206.000
45.68000 194.000
45.89000 189.000
46.10000 197.000
46.31000 176.000
46.52000 173.000
46.73000 199.000
46.94000 163.000
47.15000 165.000
47.36000 177.000
47.57000 162.000
47.78000 164.000
47.99000 182.000
48.20000 153.000
48.41000 173.000
48.62000 159.000
48.83000 165.000
49.04000 166.000
49.25000 156.000
49.46000 161.000
49.67000 159.000
49.88000 164.000
50.09000 150.000
50.30000 162.000
50.51000 160.000
50.72000 162.000
50.93000 196.000
51.14000 181.000
51.35000 148.000
51.56000 168.000
51.77000 151.000
51.98000 155.000
52.19000 151.000
52.40000 178.000
52.61000 144.000
52.82000 152.000
53.03000 134.000
53.24000 171.000
53.45000 154.000
53.66000 145.000
53.87000 148.000
54.08000 164.000
54.29000 164.000
54.50000 173.000
54.71000 155.000
54.92000 150.000
55.13000 148.000
55.34000 162.000
55.55000 134.000
55.76000 126.000
55.97000 132.000
56.18000 155.000
56.39000 133.000
56.60000 133.000
56.81000 129.000
57.02000 130.000
57.23000 151.000
57.44000 141.000
57.65000 143.000
57.86000 156.000
58.07000 135.000
58.28000 139.000
58.49000 125.000
58.70000 138.000
58.91000 130.000
59.12000 130.000
59.33000 131.000
59.54000 140.000
59.75000 132.000
59.96000 121.000
60.17000 130.000
60.38000 135.000
60.59000 141.000
60.80000 137.000
61.01000 123.000
61.22000 109.000
61.43000 137.000
61.64000 121.000
61.85000 111.000
61.98500 135.000