File: ISoD/xrd_data/HSC080.xy
2.00000 2.000
2.21000 1.000
2.42000 0.000
2.63000 2.000
2.84000 3.000
3.05000 3.000
3.26000 197.000
3.47000 277.000
3.68000 302.000
3.89000 271.000
4.10000 277.000
4.31000 266.000
4.52000 280.000
4.73000 311.000
4.94000 304.000
5.15000 316.000
5.36000 312.000
5.57000 314.000
5.78000 299.000
5.99000 317.000
6.20000 317.000
6.41000 333.000
6.62000 314.000
6.83000 306.000
7.04000 332.000
7.25000 330.000
7.46000 324.000
7.67000 314.000
7.88000 296.000
8.09000 336.000
8.30000 368.000
8.51000 320.000
8.72000 340.000
8.93000 290.000
9.14000 292.000
9.35000 281.000
9.56000 287.000
9.77000 271.000
9.98000 271.000
10.19000 260.000
10.40000 286.000
10.61000 288.000
10.82000 279.000
11.03000 265.000
11.24000 266.000
11.45000 284.000
11.66000 274.000
11.87000 273.000
12.08000 267.000
12.29000 298.000
12.50000 257.000
12.71000 248.000
12.92000 242.000
13.13000 283.000
13.34000 291.000
13.55000 282.000
13.76000 278.000
13.97000 283.000
14.18000 304.000
14.39000 285.000
14.60000 277.000
14.81000 270.000
15.02000 292.000
15.23000 298.000
15.44000 299.000
15.65000 283.000
15.86000 289.000
16.07000 317.000
16.28000 274.000
16.49000 299.000
16.70000 305.000
16.91000 312.000
17.12000 307.000
17.33000 313.000
17.54000 329.000
17.75000 308.000
17.96000 327.000
18.17000 314.000
18.38000 346.000
18.59000 336.000
18.80000 346.000
19.01000 361.000
19.22000 363.000
19.43000 384.000
19.64000 337.000
19.85000 375.000
20.06000 347.000
20.27000 382.000
20.48000 374.000
20.69000 396.000
20.90000 385.000
21.11000 396.000
21.32000 403.000
21.53000 407.000
21.74000 439.000
21.95000 444.000
22.16000 408.000
22.37000 405.000
22.58000 411.000
22.79000 432.000
23.00000 466.000
23.21000 457.000
23.42000 436.000
23.63000 454.000
23.84000 468.000
24.05000 459.000
24.26000 424.000
24.47000 468.000
24.68000 433.000
24.89000 413.000
25.10000 416.000
25.31000 440.000
25.52000 409.000
25.73000 408.000
25.94000 411.000
26.15000 406.000
26.36000 396.000
26.57000 395.000
26.78000 410.000
26.99000 400.000
27.20000 366.000
27.41000 378.000
27.62000 353.000
27.83000 352.000
28.04000 338.000
28.25000 325.000
28.46000 310.000
28.67000 337.000
28.88000 300.000
29.09000 322.000
29.30000 340.000
29.51000 315.000
29.72000 294.000
29.93000 291.000
30.14000 316.000
30.35000 328.000
30.56000 276.000
30.77000 272.000
30.98000 258.000
31.19000 267.000
31.40000 251.000
31.61000 254.000
31.82000 238.000
32.03000 245.000
32.24000 265.000
32.45000 241.000
32.66000 218.000
32.87000 221.000
33.08000 217.000
33.29000 221.000
33.50000 228.000
33.71000 214.000
33.92000 193.000
34.13000 234.000
34.34000 228.000
34.55000 211.000
34.76000 192.000
34.97000 215.000
35.18000 190.000
35.39000 188.000
35.60000 201.000
35.81000 171.000
36.02000 159.000
36.23000 175.000
36.44000 173.000
36.65000 182.000
36.86000 157.000
37.07000 168.000
37.28000 176.000
37.49000 174.000
37.70000 157.000
37.91000 137.000
38.12000 168.000
38.33000 169.000
38.54000 170.000
38.75000 155.000
38.96000 146.000
39.17000 130.000
39.38000 149.000
39.59000 158.000
39.80000 175.000
40.01000 169.000
40.22000 140.000
40.43000 156.000
40.64000 138.000
40.85000 151.000
41.06000 133.000
41.27000 148.000
41.48000 153.000
41.69000 145.000
41.90000 122.000
42.11000 131.000
42.32000 143.000
42.53000 136.000
42.74000 157.000
42.95000 127.000
43.16000 154.000
43.37000 140.000
43.58000 135.000
43.79000 139.000
44.00000 148.000
44.21000 156.000
44.42000 126.000
44.63000 126.000
44.84000 143.000
45.05000 144.000
45.26000 145.000
45.47000 150.000
45.68000 138.000
45.89000 137.000
46.10000 138.000
46.31000 148.000
46.52000 127.000
46.73000 149.000
46.94000 128.000
47.15000 146.000
47.36000 146.000
47.57000 143.000
47.78000 140.000
47.99000 135.000
48.20000 128.000
48.41000 125.000
48.62000 117.000
48.83000 116.000
49.04000 122.000
49.25000 126.000
49.46000 125.000
49.67000 118.000
49.88000 118.000
50.09000 130.000
50.30000 113.000
50.51000 118.000
50.72000 115.000
50.93000 136.000
51.14000 119.000
51.35000 128.000
51.56000 126.000
51.77000 115.000
51.98000 125.000
52.19000 135.000
52.40000 123.000
52.61000 124.000
52.82000 133.000
53.03000 107.000
53.24000 102.000
53.45000 129.000
53.66000 117.000
53.87000 112.000
54.08000 117.000
54.29000 120.000
54.50000 107.000
54.71000 125.000
54.92000 117.000
55.13000 135.000
55.34000 116.000
55.55000 106.000
55.76000 112.000
55.97000 121.000
56.18000 127.000
56.39000 119.000
56.60000 119.000
56.81000 111.000
57.02000 130.000
57.23000 113.000
57.44000 123.000
57.65000 117.000
57.86000 122.000
58.07000 112.000
58.28000 113.000
58.49000 111.000
58.70000 100.000
58.91000 127.000
59.12000 116.000
59.33000 95.000
59.54000 122.000
59.75000 97.000
59.96000 119.000
60.17000 125.000
60.38000 113.000
60.59000 111.000
60.80000 110.000
61.01000 109.000
61.22000 106.000
61.43000 134.000
61.64000 115.000
61.85000 113.000
61.98500 117.000