File: ISoD/xrd_data/HSC034.xy
2.00000 629.000
2.21000 512.000
2.42000 457.000
2.63000 403.000
2.84000 389.000
3.05000 360.000
3.26000 329.000
3.47000 319.000
3.68000 308.000
3.89000 312.000
4.10000 311.000
4.31000 299.000
4.52000 307.000
4.73000 292.000
4.94000 308.000
5.15000 287.000
5.36000 288.000
5.57000 326.000
5.78000 299.000
5.99000 291.000
6.20000 307.000
6.41000 324.000
6.62000 326.000
6.83000 287.000
7.04000 318.000
7.25000 315.000
7.46000 337.000
7.67000 332.000
7.88000 329.000
8.09000 322.000
8.30000 341.000
8.51000 357.000
8.72000 353.000
8.93000 337.000
9.14000 353.000
9.35000 354.000
9.56000 351.000
9.77000 347.000
9.98000 390.000
10.19000 427.000
10.40000 364.000
10.61000 540.000
10.82000 472.000
11.03000 439.000
11.24000 468.000
11.45000 477.000
11.66000 465.000
11.87000 465.000
12.08000 889.000
12.29000 360.000
12.50000 344.000
12.71000 488.000
12.92000 324.000
13.13000 306.000
13.34000 307.000
13.55000 309.000
13.76000 317.000
13.97000 304.000
14.18000 310.000
14.39000 277.000
14.60000 306.000
14.81000 275.000
15.02000 287.000
15.23000 303.000
15.44000 272.000
15.65000 275.000
15.86000 299.000
16.07000 310.000
16.28000 325.000
16.49000 317.000
16.70000 278.000
16.91000 298.000
17.12000 304.000
17.33000 357.000
17.54000 314.000
17.75000 335.000
17.96000 307.000
18.17000 313.000
18.38000 285.000
18.59000 312.000
18.80000 330.000
19.01000 300.000
19.22000 330.000
19.43000 326.000
19.64000 330.000
19.85000 398.000
20.06000 338.000
20.27000 345.000
20.48000 372.000
20.69000 359.000
20.90000 303.000
21.11000 394.000
21.32000 382.000
21.53000 384.000
21.74000 360.000
21.95000 382.000
22.16000 378.000
22.37000 363.000
22.58000 431.000
22.79000 432.000
23.00000 473.000
23.21000 457.000
23.42000 413.000
23.63000 411.000
23.84000 448.000
24.05000 415.000
24.26000 459.000
24.47000 489.000
24.68000 511.000
24.89000 600.000
25.10000 628.000
25.31000 616.000
25.52000 653.000
25.73000 583.000
25.94000 629.000
26.15000 582.000
26.36000 640.000
26.57000 692.000
26.78000 682.000
26.99000 970.000
27.20000 1518.000
27.41000 727.000
27.62000 563.000
27.83000 479.000
28.04000 432.000
28.25000 429.000
28.46000 380.000
28.67000 380.000
28.88000 364.000
29.09000 353.000
29.30000 358.000
29.51000 324.000
29.72000 341.000
29.93000 378.000
30.14000 363.000
30.35000 433.000
30.56000 381.000
30.77000 305.000
30.98000 313.000
31.19000 282.000
31.40000 288.000
31.61000 299.000
31.82000 272.000
32.03000 263.000
32.24000 263.000
32.45000 261.000
32.66000 237.000
32.87000 275.000
33.08000 236.000
33.29000 263.000
33.50000 256.000
33.71000 238.000
33.92000 242.000
34.13000 239.000
34.34000 242.000
34.55000 242.000
34.76000 264.000
34.97000 229.000
35.18000 212.000
35.39000 203.000
35.60000 204.000
35.81000 188.000
36.02000 193.000
36.23000 201.000
36.44000 188.000
36.65000 197.000
36.86000 190.000
37.07000 171.000
37.28000 199.000
37.49000 192.000
37.70000 177.000
37.91000 193.000
38.12000 187.000
38.33000 201.000
38.54000 171.000
38.75000 196.000
38.96000 169.000
39.17000 166.000
39.38000 179.000
39.59000 179.000
39.80000 200.000
40.01000 216.000
40.22000 205.000
40.43000 186.000
40.64000 174.000
40.85000 193.000
41.06000 199.000
41.27000 196.000
41.48000 181.000
41.69000 194.000
41.90000 191.000
42.11000 173.000
42.32000 178.000
42.53000 176.000
42.74000 164.000
42.95000 170.000
43.16000 182.000
43.37000 163.000
43.58000 161.000
43.79000 167.000
44.00000 169.000
44.21000 172.000
44.42000 159.000
44.63000 155.000
44.84000 156.000
45.05000 173.000
45.26000 147.000
45.47000 185.000
45.68000 167.000
45.89000 172.000
46.10000 168.000
46.31000 171.000
46.52000 158.000
46.73000 160.000
46.94000 149.000
47.15000 174.000
47.36000 130.000
47.57000 166.000
47.78000 169.000
47.99000 169.000
48.20000 160.000
48.41000 163.000
48.62000 147.000
48.83000 164.000
49.04000 151.000
49.25000 141.000
49.46000 144.000
49.67000 136.000
49.88000 139.000
50.09000 126.000
50.30000 127.000
50.51000 132.000
50.72000 147.000
50.93000 150.000
51.14000 151.000
51.35000 136.000
51.56000 152.000
51.77000 146.000
51.98000 143.000
52.19000 141.000
52.40000 161.000
52.61000 144.000
52.82000 146.000
53.03000 154.000
53.24000 149.000
53.45000 160.000
53.66000 148.000
53.87000 140.000
54.08000 157.000
54.29000 136.000
54.50000 121.000
54.71000 134.000
54.92000 130.000
55.13000 148.000
55.34000 133.000
55.55000 128.000
55.76000 126.000
55.97000 151.000
56.18000 151.000
56.39000 139.000
56.60000 131.000
56.81000 135.000
57.02000 115.000
57.23000 133.000
57.44000 136.000
57.65000 118.000
57.86000 146.000
58.07000 128.000
58.28000 127.000
58.49000 120.000
58.70000 113.000
58.91000 132.000
59.12000 114.000
59.33000 111.000
59.54000 133.000
59.75000 113.000
59.96000 130.000
60.17000 114.000
60.38000 121.000
60.59000 107.000
60.80000 109.000
61.01000 119.000
61.22000 119.000
61.43000 132.000
61.64000 109.000
61.85000 123.000
61.98500 110.000