File: ISoD/xrd_data/HSC005III_ranges_combined.xy
2.0 738.0
2.21 561.0
2.42 530.0
2.63 459.0
2.84 408.0
3.05 379.0
3.26 383.0
3.47 360.0
3.68 381.0
3.89 351.0
4.1 356.0
4.31 343.0
4.52 338.0
4.73 367.0
4.94 337.0
5.15 380.0
5.36 381.0
5.57 349.0
5.78 368.0
5.99 366.0
6.2 342.0
6.41 352.0
6.62 338.0
6.83 353.0
7.04 338.0
7.25 334.0
7.46 353.0
7.67 371.0
7.88 347.0
8.09 354.0
8.3 327.0
8.51 335.0
8.72 354.0
8.93 326.0
9.14 363.0
9.35 345.0
9.56 318.0
9.77 342.0
9.98 343.0
10.19 364.0
10.4 330.0
10.61 334.0
10.82 335.0
11.03 353.0
11.24 360.0
11.45 333.0
11.66 350.0
11.87 712.0
12.08 1915.0
12.29 464.0
12.5 431.0
12.71 394.0
12.92 403.0
13.13 368.0
13.34 367.0
13.55 346.0
13.76 389.0
13.97 360.0
14.18 354.0
14.39 363.0
14.6 398.0
14.81 366.0
15.02 351.0
15.23 414.0
15.44 379.0
15.65 378.0
15.86 386.0
16.07 385.0
16.28 361.0
16.49 397.0
16.7 412.0
16.91 415.0
17.12 416.0
17.33 446.0
17.54 442.0
17.75 495.0
17.96 696.0
18.17 568.0
18.38 501.0
18.59 482.0
18.8 443.0
19.01 463.0
19.22 458.0
19.43 448.0
19.64 444.0
19.85 458.0
20.06 458.0
20.27 469.0
20.48 505.0
20.69 614.0
20.9 951.0
21.11 602.0
21.32 528.0
21.53 531.0
21.74 520.0
21.95 496.0
22.16 510.0
22.37 540.0
22.58 548.0
22.79 545.0
23.0 539.0
23.21 578.0
23.42 553.0
23.63 531.0
23.84 567.0
24.05 589.0
24.26 795.0
24.47 636.0
24.68 790.0
24.89 1002.0
25.1 827.0
25.31 657.0
25.52 658.0
25.73 619.0
25.94 628.0
26.15 662.0
26.36 671.0
26.57 794.0
26.78 1041.0
26.99 1767.0
27.2 1408.0
27.41 1292.0
27.62 1769.0
27.83 1594.0
28.04 1022.0
28.25 785.0
28.46 673.0
28.67 633.0
28.88 630.0
29.09 611.0
29.3 653.0
29.51 772.0
29.72 786.0
29.93 650.0
30.14 525.0
30.35 452.0
30.56 444.0
30.77 427.0
30.98 440.0
31.19 410.0
31.4 387.0
31.61 398.0
31.82 405.0
32.03 683.0
32.24 692.0
32.45 446.0
32.66 384.0
32.87 371.0
33.08 395.0
33.29 355.0
33.5 362.0
33.71 347.0
33.92 342.0
34.13 354.0
34.34 362.0
34.55 348.0
34.76 390.0
34.97 407.0
35.18 384.0
35.39 314.0
35.6 284.0
35.81 320.0
36.02 293.0
36.23 267.0
36.44 289.0
36.65 298.0
36.86 263.0
37.07 249.0
37.28 261.0
37.49 256.0
37.7 252.0
37.91 243.0
38.12 265.0
38.33 244.0
38.54 242.0
38.75 237.0
38.96 267.0
39.17 250.0
39.38 272.0
39.59 291.0
39.8 317.0
40.01 302.0
40.22 272.0
40.43 253.0
40.64 224.0
40.85 261.0
41.06 248.0
41.27 274.0
41.48 231.0
41.69 254.0
41.9 252.0
42.11 269.0
42.32 351.0
42.53 322.0
42.74 349.0
42.95 288.0
43.16 272.0
43.37 270.0
43.58 265.0
43.79 269.0
44.0 283.0
44.21 310.0
44.42 412.0
44.63 435.0
44.84 489.0
45.05 404.0
45.26 297.0
45.47 251.0
45.68 237.0
45.89 237.0
46.1 237.0
46.31 247.0
46.52 249.0
46.73 267.0
46.94 233.0
47.15 229.0
47.36 210.0
47.57 236.0
47.78 206.0
47.99 216.0
48.2 196.0
48.41 205.0
48.62 204.0
48.83 217.0
49.04 216.0
49.25 220.0
49.46 212.0
49.67 208.0
49.88 201.0
50.09 193.0
50.3 190.0
50.51 214.0
50.72 200.0
50.93 235.0
51.14 212.0
51.35 230.0
51.56 192.0
51.77 206.0
51.98 200.0
52.19 200.0
52.4 188.0
52.61 212.0
52.82 201.0
53.03 199.0
53.24 207.0
53.45 193.0
53.66 204.0
53.87 194.0
54.08 203.0
54.29 216.0
54.5 214.0
54.71 191.0
54.92 207.0
55.13 189.0
55.34 195.0
55.55 216.0
55.76 219.0
55.97 275.0
56.18 278.0
56.39 260.0
56.6 249.0
56.81 227.0
57.02 239.0
57.23 248.0
57.44 228.0
57.65 206.0
57.86 184.0
58.07 180.0
58.28 164.0
58.49 196.0
58.7 187.0
58.91 189.0
59.12 181.0
59.33 207.0
59.54 177.0
59.75 180.0
59.96 193.0
60.17 196.0
60.38 188.0
60.59 183.0
60.8 178.0
61.01 185.0
61.22 158.0
61.43 178.0
61.64 184.0
61.85 188.0
61.985 175.0