File: ISoD/xrd_data/HSC006B_range_1.xy
2.00000 537.000
2.21000 558.000
2.42000 358.000
2.63000 236.000
2.84000 181.000
3.05000 151.000
3.26000 148.000
3.47000 148.000
3.68000 147.000
3.89000 137.000
4.10000 134.000
4.31000 134.000
4.52000 119.000
4.73000 123.000
4.94000 117.000
5.15000 117.000
5.36000 112.000
5.57000 105.000
5.78000 114.000
5.99000 118.000
6.20000 109.000
6.41000 92.000
6.62000 104.000
6.83000 121.000
7.04000 96.000
7.25000 125.000
7.46000 121.000
7.67000 126.000
7.88000 111.000
8.09000 123.000
8.30000 114.000
8.51000 122.000
8.72000 124.000
8.93000 118.000
9.14000 123.000
9.35000 115.000
9.56000 119.000
9.77000 119.000
9.98000 134.000
10.19000 124.000
10.40000 126.000
10.61000 111.000
10.82000 147.000
11.03000 127.000
11.24000 135.000
11.45000 138.000
11.66000 133.000
11.87000 135.000
12.08000 127.000
12.29000 145.000
12.50000 145.000
12.71000 152.000
12.92000 167.000
13.13000 159.000
13.34000 166.000
13.55000 164.000
13.76000 156.000
13.97000 186.000
14.18000 183.000
14.39000 180.000
14.60000 191.000
14.81000 192.000
15.02000 166.000
15.23000 191.000
15.44000 191.000
15.65000 197.000
15.86000 207.000
16.07000 207.000
16.28000 196.000
16.49000 212.000
16.70000 214.000
16.91000 194.000
17.12000 203.000
17.33000 194.000
17.54000 198.000
17.75000 190.000
17.96000 201.000
18.17000 214.000
18.38000 239.000
18.59000 306.000
18.80000 321.000
19.01000 252.000
19.22000 204.000
19.43000 207.000
19.64000 215.000
19.85000 226.000
20.06000 218.000
20.27000 221.000
20.48000 225.000
20.69000 214.000
20.90000 198.000
21.11000 207.000
21.32000 244.000
21.53000 236.000
21.74000 249.000
21.95000 226.000
22.16000 227.000
22.37000 213.000
22.58000 225.000
22.79000 233.000
23.00000 236.000
23.21000 239.000
23.42000 259.000
23.63000 237.000
23.84000 262.000
24.05000 296.000
24.26000 385.000
24.47000 371.000
24.68000 295.000
24.89000 251.000
25.10000 240.000
25.31000 242.000
25.52000 245.000
25.73000 237.000
25.94000 219.000
26.15000 239.000
26.36000 235.000
26.57000 214.000
26.78000 238.000
26.99000 242.000
27.20000 206.000
27.41000 245.000
27.62000 255.000
27.83000 423.000
28.04000 415.000
28.25000 259.000
28.46000 209.000
28.67000 221.000
28.88000 194.000
29.09000 214.000
29.30000 206.000
29.51000 205.000
29.72000 192.000
29.93000 184.000
30.14000 178.000
30.35000 225.000
30.56000 221.000
30.77000 206.000
30.98000 195.000
31.19000 175.000
31.40000 177.000
31.61000 175.000
31.82000 174.000
32.03000 182.000
32.24000 184.000
32.45000 167.000
32.66000 198.000
32.87000 162.000
33.08000 175.000
33.29000 162.000
33.50000 144.000
33.71000 150.000
33.92000 153.000
34.13000 139.000
34.34000 134.000
34.55000 152.000
34.76000 146.000
34.97000 138.000
35.18000 147.000
35.39000 143.000
35.60000 145.000
35.81000 152.000
36.02000 154.000
36.23000 150.000
36.44000 135.000
36.65000 121.000
36.86000 144.000
37.07000 142.000
37.28000 126.000
37.49000 131.000
37.70000 134.000
37.91000 121.000
38.12000 133.000
38.33000 115.000
38.54000 141.000
38.75000 135.000
38.96000 113.000
39.17000 127.000
39.38000 111.000
39.59000 135.000
39.80000 122.000
40.01000 129.000
40.22000 128.000
40.43000 112.000
40.64000 110.000
40.85000 149.000
41.06000 126.000
41.27000 132.000
41.48000 129.000
41.69000 130.000
41.90000 121.000
42.11000 137.000
42.32000 141.000
42.53000 125.000
42.74000 131.000
42.95000 114.000
43.16000 117.000
43.37000 140.000
43.58000 135.000
43.79000 131.000
44.00000 153.000
44.21000 127.000
44.42000 122.000
44.63000 123.000
44.84000 135.000
45.05000 149.000
45.26000 147.000
45.47000 128.000
45.68000 108.000
45.89000 120.000
46.10000 127.000
46.31000 121.000
46.52000 127.000
46.73000 130.000
46.94000 127.000
47.15000 129.000
47.36000 122.000
47.57000 133.000
47.78000 119.000
47.99000 129.000
48.20000 119.000
48.41000 124.000
48.62000 112.000
48.83000 136.000
49.04000 124.000
49.25000 116.000
49.46000 132.000
49.67000 137.000
49.88000 116.000
50.09000 118.000
50.30000 125.000
50.51000 113.000
50.72000 119.000
50.93000 105.000
51.14000 131.000
51.35000 123.000
51.56000 112.000
51.77000 133.000
51.98000 118.000
52.19000 120.000
52.40000 113.000
52.61000 115.000
52.82000 119.000
53.03000 108.000
53.24000 127.000
53.45000 117.000
53.66000 113.000
53.87000 95.000
54.08000 113.000
54.29000 102.000
54.50000 97.000
54.71000 105.000
54.92000 120.000
55.13000 113.000
55.34000 106.000
55.55000 108.000
55.76000 115.000
55.97000 102.000
56.18000 111.000
56.39000 109.000
56.60000 87.000
56.81000 111.000
57.02000 115.000
57.23000 102.000
57.44000 88.000
57.65000 130.000
57.86000 94.000
58.07000 108.000
58.28000 92.000
58.49000 96.000
58.70000 101.000
58.91000 112.000
59.12000 100.000
59.33000 84.000
59.54000 115.000
59.75000 91.000
59.96000 97.000
60.17000 86.000
60.38000 92.000
60.59000 97.000
60.80000 99.000
61.01000 90.000
61.22000 98.000
61.43000 103.000
61.64000 92.000
61.85000 107.000
61.98500 94.000