File: ISoD/xrd_data/HSC086.xy
2.00000 4.000
2.21000 9.000
2.42000 6.000
2.63000 1.000
2.84000 3.000
3.05000 4.000
3.26000 153.000
3.47000 514.000
3.68000 484.000
3.89000 440.000
4.10000 408.000
4.31000 396.000
4.52000 384.000
4.73000 412.000
4.94000 402.000
5.15000 429.000
5.36000 455.000
5.57000 495.000
5.78000 609.000
5.99000 969.000
6.20000 1403.000
6.41000 962.000
6.62000 569.000
6.83000 444.000
7.04000 469.000
7.25000 435.000
7.46000 482.000
7.67000 460.000
7.88000 462.000
8.09000 488.000
8.30000 565.000
8.51000 661.000
8.72000 776.000
8.93000 728.000
9.14000 554.000
9.35000 541.000
9.56000 630.000
9.77000 772.000
9.98000 1038.000
10.19000 1143.000
10.40000 1131.000
10.61000 883.000
10.82000 737.000
11.03000 716.000
11.24000 538.000
11.45000 539.000
11.66000 494.000
11.87000 529.000
12.08000 507.000
12.29000 477.000
12.50000 518.000
12.71000 558.000
12.92000 515.000
13.13000 482.000
13.34000 473.000
13.55000 481.000
13.76000 530.000
13.97000 505.000
14.18000 494.000
14.39000 514.000
14.60000 483.000
14.81000 489.000
15.02000 538.000
15.23000 509.000
15.44000 501.000
15.65000 507.000
15.86000 512.000
16.07000 530.000
16.28000 567.000
16.49000 503.000
16.70000 549.000
16.91000 584.000
17.12000 556.000
17.33000 597.000
17.54000 603.000
17.75000 622.000
17.96000 654.000
18.17000 682.000
18.38000 769.000
18.59000 921.000
18.80000 1140.000
19.01000 1050.000
19.22000 945.000
19.43000 769.000
19.64000 636.000
19.85000 600.000
20.06000 569.000
20.27000 580.000
20.48000 581.000
20.69000 541.000
20.90000 552.000
21.11000 596.000
21.32000 596.000
21.53000 563.000
21.74000 558.000
21.95000 556.000
22.16000 581.000
22.37000 592.000
22.58000 548.000
22.79000 558.000
23.00000 572.000
23.21000 606.000
23.42000 609.000
23.63000 624.000
23.84000 626.000
24.05000 604.000
24.26000 619.000
24.47000 760.000
24.68000 823.000
24.89000 926.000
25.10000 1114.000
25.31000 1148.000
25.52000 1221.000
25.73000 1198.000
25.94000 1208.000
26.15000 1104.000
26.36000 1077.000
26.57000 1095.000
26.78000 1019.000
26.99000 1033.000
27.20000 1153.000
27.41000 1382.000
27.62000 1659.000
27.83000 1961.000
28.04000 2057.000
28.25000 1484.000
28.46000 1222.000
28.67000 968.000
28.88000 890.000
29.09000 815.000
29.30000 704.000
29.51000 702.000
29.72000 669.000
29.93000 609.000
30.14000 647.000
30.35000 626.000
30.56000 596.000
30.77000 565.000
30.98000 576.000
31.19000 524.000
31.40000 516.000
31.61000 510.000
31.82000 520.000
32.03000 525.000
32.24000 542.000
32.45000 461.000
32.66000 556.000
32.87000 507.000
33.08000 486.000
33.29000 421.000
33.50000 402.000
33.71000 456.000
33.92000 430.000
34.13000 403.000
34.34000 411.000
34.55000 401.000
34.76000 390.000
34.97000 375.000
35.18000 417.000
35.39000 439.000
35.60000 441.000
35.81000 451.000
36.02000 455.000
36.23000 408.000
36.44000 435.000
36.65000 433.000
36.86000 429.000
37.07000 393.000
37.28000 407.000
37.49000 407.000
37.70000 378.000
37.91000 389.000
38.12000 380.000
38.33000 359.000
38.54000 375.000
38.75000 368.000
38.96000 410.000
39.17000 343.000
39.38000 367.000
39.59000 369.000
39.80000 317.000
40.01000 326.000
40.22000 316.000
40.43000 298.000
40.64000 321.000
40.85000 324.000
41.06000 310.000
41.27000 295.000
41.48000 312.000
41.69000 278.000
41.90000 298.000
42.11000 295.000
42.32000 298.000
42.53000 283.000
42.74000 278.000
42.95000 316.000
43.16000 284.000
43.37000 274.000
43.58000 265.000
43.79000 270.000
44.00000 264.000
44.21000 286.000
44.42000 265.000
44.63000 277.000
44.84000 282.000
45.05000 284.000
45.26000 257.000
45.47000 281.000
45.68000 275.000
45.89000 277.000
46.10000 276.000
46.31000 278.000
46.52000 274.000
46.73000 273.000
46.94000 258.000
47.15000 254.000
47.36000 250.000
47.57000 252.000
47.78000 262.000
47.99000 268.000
48.20000 251.000
48.41000 251.000
48.62000 255.000
48.83000 238.000
49.04000 269.000
49.25000 254.000
49.46000 254.000
49.67000 226.000
49.88000 246.000
50.09000 277.000
50.30000 235.000
50.51000 252.000
50.72000 243.000
50.93000 238.000
51.14000 242.000
51.35000 244.000
51.56000 240.000
51.77000 215.000
51.98000 256.000
52.19000 246.000
52.40000 263.000
52.61000 232.000
52.82000 235.000
53.03000 272.000
53.24000 266.000
53.45000 251.000
53.66000 265.000
53.87000 255.000
54.08000 247.000
54.29000 264.000
54.50000 265.000
54.71000 260.000
54.92000 237.000
55.13000 275.000
55.34000 274.000
55.55000 265.000
55.76000 245.000
55.97000 256.000
56.18000 252.000
56.39000 247.000
56.60000 267.000
56.81000 232.000
57.02000 253.000
57.23000 258.000
57.44000 246.000
57.65000 258.000
57.86000 270.000
58.07000 262.000
58.28000 218.000
58.49000 267.000
58.70000 227.000
58.91000 213.000
59.12000 231.000
59.33000 212.000
59.54000 222.000
59.75000 208.000
59.96000 195.000
60.17000 234.000
60.38000 202.000
60.59000 208.000
60.80000 209.000
61.01000 218.000
61.22000 194.000
61.43000 205.000
61.64000 202.000
61.85000 192.000
61.98500 200.000