File: ISoD/xrd_data/HSC095.xy
2.00000 2.000
2.21000 1.000
2.42000 1.000
2.63000 3.000
2.84000 1.000
3.05000 12.000
3.26000 94.000
3.47000 103.000
3.68000 103.000
3.89000 103.000
4.10000 103.000
4.31000 119.000
4.52000 130.000
4.73000 131.000
4.94000 141.000
5.15000 126.000
5.36000 138.000
5.57000 149.000
5.78000 161.000
5.99000 195.000
6.20000 489.000
6.41000 163.000
6.62000 157.000
6.83000 158.000
7.04000 155.000
7.25000 173.000
7.46000 159.000
7.67000 187.000
7.88000 167.000
8.09000 156.000
8.30000 161.000
8.51000 158.000
8.72000 185.000
8.93000 227.000
9.14000 169.000
9.35000 167.000
9.56000 190.000
9.77000 188.000
9.98000 169.000
10.19000 219.000
10.40000 745.000
10.61000 165.000
10.82000 170.000
11.03000 176.000
11.24000 182.000
11.45000 168.000
11.66000 181.000
11.87000 228.000
12.08000 718.000
12.29000 655.000
12.50000 331.000
12.71000 188.000
12.92000 190.000
13.13000 178.000
13.34000 443.000
13.55000 198.000
13.76000 185.000
13.97000 165.000
14.18000 188.000
14.39000 171.000
14.60000 180.000
14.81000 172.000
15.02000 303.000
15.23000 187.000
15.44000 178.000
15.65000 187.000
15.86000 174.000
16.07000 187.000
16.28000 204.000
16.49000 276.000
16.70000 197.000
16.91000 223.000
17.12000 204.000
17.33000 186.000
17.54000 188.000
17.75000 200.000
17.96000 364.000
18.17000 196.000
18.38000 201.000
18.59000 219.000
18.80000 305.000
19.01000 219.000
19.22000 593.000
19.43000 513.000
19.64000 522.000
19.85000 178.000
20.06000 207.000
20.27000 213.000
20.48000 210.000
20.69000 193.000
20.90000 255.000
21.11000 249.000
21.32000 222.000
21.53000 305.000
21.74000 211.000
21.95000 199.000
22.16000 275.000
22.37000 202.000
22.58000 196.000
22.79000 196.000
23.00000 211.000
23.21000 205.000
23.42000 215.000
23.63000 233.000
23.84000 254.000
24.05000 226.000
24.26000 290.000
24.47000 565.000
24.68000 278.000
24.89000 211.000
25.10000 419.000
25.31000 282.000
25.52000 435.000
25.73000 788.000
25.94000 392.000
26.15000 497.000
26.36000 789.000
26.57000 1166.000
26.78000 288.000
26.99000 347.000
27.20000 281.000
27.41000 292.000
27.62000 1173.000
27.83000 1710.000
28.04000 283.000
28.25000 279.000
28.46000 280.000
28.67000 220.000
28.88000 260.000
29.09000 277.000
29.30000 259.000
29.51000 298.000
29.72000 236.000
29.93000 318.000
30.14000 297.000
30.35000 397.000
30.56000 317.000
30.77000 352.000
30.98000 286.000
31.19000 193.000
31.40000 178.000
31.61000 424.000
31.82000 228.000
32.03000 315.000
32.24000 192.000
32.45000 198.000
32.66000 259.000
32.87000 153.000
33.08000 229.000
33.29000 173.000
33.50000 176.000
33.71000 332.000
33.92000 245.000
34.13000 158.000
34.34000 149.000
34.55000 162.000
34.76000 140.000
34.97000 187.000
35.18000 145.000
35.39000 173.000
35.60000 141.000
35.81000 374.000
36.02000 116.000
36.23000 113.000
36.44000 138.000
36.65000 132.000
36.86000 117.000
37.07000 129.000
37.28000 116.000
37.49000 120.000
37.70000 81.000
37.91000 112.000
38.12000 128.000
38.33000 130.000
38.54000 112.000
38.75000 176.000
38.96000 126.000
39.17000 115.000
39.38000 118.000
39.59000 103.000
39.80000 107.000
40.01000 104.000
40.22000 108.000
40.43000 144.000
40.64000 113.000
40.85000 237.000
41.06000 112.000
41.27000 133.000
41.48000 96.000
41.69000 124.000
41.90000 122.000
42.11000 123.000
42.32000 149.000
42.53000 113.000
42.74000 129.000
42.95000 106.000
43.16000 125.000
43.37000 117.000
43.58000 95.000
43.79000 108.000
44.00000 110.000
44.21000 131.000
44.42000 126.000
44.63000 147.000
44.84000 125.000
45.05000 140.000
45.26000 97.000
45.47000 138.000
45.68000 88.000
45.89000 106.000
46.10000 119.000
46.31000 148.000
46.52000 110.000
46.73000 118.000
46.94000 131.000
47.15000 121.000
47.36000 106.000
47.57000 115.000
47.78000 111.000
47.99000 112.000
48.20000 92.000
48.41000 99.000
48.62000 99.000
48.83000 77.000
49.04000 131.000
49.25000 105.000
49.46000 115.000
49.67000 103.000
49.88000 101.000
50.09000 119.000
50.30000 119.000
50.51000 118.000
50.72000 132.000
50.93000 98.000
51.14000 100.000
51.35000 107.000
51.56000 91.000
51.77000 86.000
51.98000 106.000
52.19000 118.000
52.40000 97.000
52.61000 97.000
52.82000 118.000
53.03000 127.000
53.24000 125.000
53.45000 130.000
53.66000 97.000
53.87000 107.000
54.08000 124.000
54.29000 102.000
54.50000 113.000
54.71000 138.000
54.92000 120.000
55.13000 128.000
55.34000 108.000
55.55000 89.000
55.76000 132.000
55.97000 80.000
56.18000 90.000
56.39000 78.000
56.60000 96.000
56.81000 116.000
57.02000 79.000
57.23000 95.000
57.44000 113.000
57.65000 82.000
57.86000 85.000
58.07000 75.000
58.28000 95.000
58.49000 98.000
58.70000 92.000
58.91000 81.000
59.12000 75.000
59.33000 84.000
59.54000 81.000
59.75000 91.000
59.96000 100.000
60.17000 91.000
60.38000 95.000
60.59000 96.000
60.80000 73.000
61.01000 86.000
61.22000 79.000
61.43000 81.000
61.64000 64.000
61.85000 80.000
61.98500 86.000