File: ISoD/xrd_data/HSC074.xy
2.00000 76.000
2.21000 78.000
2.42000 102.000
2.63000 106.000
2.84000 59.000
3.05000 50.000
3.26000 58.000
3.47000 42.000
3.68000 89.000
3.89000 255.000
4.10000 266.000
4.31000 237.000
4.52000 245.000
4.73000 273.000
4.94000 247.000
5.15000 274.000
5.36000 273.000
5.57000 289.000
5.78000 301.000
5.99000 302.000
6.20000 368.000
6.41000 337.000
6.62000 292.000
6.83000 269.000
7.04000 284.000
7.25000 278.000
7.46000 280.000
7.67000 315.000
7.88000 277.000
8.09000 330.000
8.30000 341.000
8.51000 342.000
8.72000 327.000
8.93000 304.000
9.14000 331.000
9.35000 316.000
9.56000 306.000
9.77000 357.000
9.98000 355.000
10.19000 412.000
10.40000 369.000
10.61000 388.000
10.82000 371.000
11.03000 411.000
11.24000 380.000
11.45000 366.000
11.66000 398.000
11.87000 619.000
12.08000 1507.000
12.29000 519.000
12.50000 438.000
12.71000 360.000
12.92000 341.000
13.13000 344.000
13.34000 325.000
13.55000 329.000
13.76000 315.000
13.97000 320.000
14.18000 317.000
14.39000 345.000
14.60000 316.000
14.81000 316.000
15.02000 333.000
15.23000 328.000
15.44000 323.000
15.65000 351.000
15.86000 316.000
16.07000 321.000
16.28000 324.000
16.49000 353.000
16.70000 353.000
16.91000 335.000
17.12000 363.000
17.33000 340.000
17.54000 359.000
17.75000 363.000
17.96000 371.000
18.17000 367.000
18.38000 372.000
18.59000 359.000
18.80000 364.000
19.01000 384.000
19.22000 348.000
19.43000 352.000
19.64000 357.000
19.85000 364.000
20.06000 373.000
20.27000 342.000
20.48000 363.000
20.69000 442.000
20.90000 1104.000
21.11000 1024.000
21.32000 400.000
21.53000 405.000
21.74000 385.000
21.95000 359.000
22.16000 373.000
22.37000 361.000
22.58000 343.000
22.79000 378.000
23.00000 342.000
23.21000 382.000
23.42000 379.000
23.63000 384.000
23.84000 417.000
24.05000 457.000
24.26000 971.000
24.47000 573.000
24.68000 686.000
24.89000 793.000
25.10000 548.000
25.31000 518.000
25.52000 483.000
25.73000 483.000
25.94000 515.000
26.15000 1052.000
26.36000 3625.000
26.57000 1390.000
26.78000 846.000
26.99000 729.000
27.20000 647.000
27.41000 598.000
27.62000 623.000
27.83000 571.000
28.04000 607.000
28.25000 530.000
28.46000 538.000
28.67000 628.000
28.88000 1412.000
29.09000 2827.000
29.30000 1280.000
29.51000 663.000
29.72000 491.000
29.93000 452.000
30.14000 349.000
30.35000 358.000
30.56000 341.000
30.77000 334.000
30.98000 342.000
31.19000 327.000
31.40000 295.000
31.61000 325.000
31.82000 325.000
32.03000 373.000
32.24000 884.000
32.45000 851.000
32.66000 382.000
32.87000 291.000
33.08000 293.000
33.29000 284.000
33.50000 294.000
33.71000 336.000
33.92000 377.000
34.13000 307.000
34.34000 290.000
34.55000 287.000
34.76000 288.000
34.97000 337.000
35.18000 279.000
35.39000 265.000
35.60000 244.000
35.81000 286.000
36.02000 322.000
36.23000 366.000
36.44000 258.000
36.65000 254.000
36.86000 285.000
37.07000 227.000
37.28000 225.000
37.49000 223.000
37.70000 193.000
37.91000 218.000
38.12000 193.000
38.33000 198.000
38.54000 204.000
38.75000 199.000
38.96000 187.000
39.17000 199.000
39.38000 198.000
39.59000 182.000
39.80000 188.000
40.01000 197.000
40.22000 200.000
40.43000 174.000
40.64000 190.000
40.85000 175.000
41.06000 170.000
41.27000 184.000
41.48000 181.000
41.69000 196.000
41.90000 206.000
42.11000 209.000
42.32000 208.000
42.53000 252.000
42.74000 393.000
42.95000 242.000
43.16000 211.000
43.37000 204.000
43.58000 224.000
43.79000 209.000
44.00000 203.000
44.21000 246.000
44.42000 290.000
44.63000 446.000
44.84000 413.000
45.05000 322.000
45.26000 258.000
45.47000 246.000
45.68000 294.000
45.89000 301.000
46.10000 245.000
46.31000 232.000
46.52000 258.000
46.73000 303.000
46.94000 241.000
47.15000 196.000
47.36000 184.000
47.57000 159.000
47.78000 169.000
47.99000 151.000
48.20000 163.000
48.41000 172.000
48.62000 185.000
48.83000 175.000
49.04000 171.000
49.25000 179.000
49.46000 166.000
49.67000 196.000
49.88000 215.000
50.09000 185.000
50.30000 204.000
50.51000 255.000
50.72000 328.000
50.93000 480.000
51.14000 382.000
51.35000 256.000
51.56000 210.000
51.77000 179.000
51.98000 174.000
52.19000 179.000
52.40000 173.000
52.61000 193.000
52.82000 174.000
53.03000 144.000
53.24000 169.000
53.45000 159.000
53.66000 205.000
53.87000 208.000
54.08000 292.000
54.29000 343.000
54.50000 353.000
54.71000 348.000
54.92000 199.000
55.13000 161.000
55.34000 181.000
55.55000 161.000
55.76000 152.000
55.97000 163.000
56.18000 170.000
56.39000 159.000
56.60000 144.000
56.81000 156.000
57.02000 138.000
57.23000 152.000
57.44000 179.000
57.65000 169.000
57.86000 138.000
58.07000 161.000
58.28000 150.000
58.49000 171.000
58.70000 172.000
58.91000 157.000
59.12000 170.000
59.33000 178.000
59.54000 148.000
59.75000 165.000
59.96000 172.000
60.17000 163.000
60.38000 159.000
60.59000 153.000
60.80000 141.000
61.01000 152.000
61.22000 149.000
61.43000 142.000
61.64000 144.000
61.85000 143.000
61.98500 146.000