File: ISoD/xrd_data/HSC081_kurzgemessen.xy
2.00000 0.000
2.21000 2.000
2.42000 1.000
2.63000 0.000
2.84000 1.000
3.05000 3.000
3.26000 25.000
3.47000 47.000
3.68000 66.000
3.89000 55.000
4.10000 73.000
4.31000 81.000
4.52000 72.000
4.73000 101.000
4.94000 98.000
5.15000 99.000
5.36000 116.000
5.57000 125.000
5.78000 122.000
5.99000 118.000
6.20000 129.000
6.41000 123.000
6.62000 129.000
6.83000 129.000
7.04000 152.000
7.25000 116.000
7.46000 137.000
7.67000 131.000
7.88000 138.000
8.09000 127.000
8.30000 137.000
8.51000 141.000
8.72000 160.000
8.93000 150.000
9.14000 147.000
9.35000 121.000
9.56000 141.000
9.77000 141.000
9.98000 135.000
10.19000 147.000
10.40000 144.000
10.61000 142.000
10.82000 154.000
11.03000 153.000
11.24000 145.000
11.45000 160.000
11.66000 153.000
11.87000 163.000
12.08000 152.000
12.29000 165.000
12.50000 159.000
12.71000 179.000
12.92000 204.000
13.13000 1212.000
13.34000 168.000
13.55000 150.000
13.76000 140.000
13.97000 156.000
14.18000 149.000
14.39000 146.000
14.60000 162.000
14.81000 478.000
15.02000 147.000
15.23000 175.000
15.44000 131.000
15.65000 137.000
15.86000 160.000
16.07000 162.000
16.28000 167.000
16.49000 170.000
16.70000 176.000
16.91000 158.000
17.12000 160.000
17.33000 265.000
17.54000 445.000
17.75000 1498.000
17.96000 358.000
18.17000 171.000
18.38000 160.000
18.59000 172.000
18.80000 159.000
19.01000 157.000
19.22000 158.000
19.43000 163.000
19.64000 143.000
19.85000 163.000
20.06000 167.000
20.27000 169.000
20.48000 177.000
20.69000 176.000
20.90000 170.000
21.11000 167.000
21.32000 205.000
21.53000 513.000
21.74000 452.000
21.95000 397.000
22.16000 317.000
22.37000 172.000
22.58000 159.000
22.79000 175.000
23.00000 160.000
23.21000 177.000
23.42000 181.000
23.63000 175.000
23.84000 173.000
24.05000 183.000
24.26000 180.000
24.47000 167.000
24.68000 172.000
24.89000 168.000
25.10000 191.000
25.31000 194.000
25.52000 277.000
25.73000 1027.000
25.94000 260.000
26.15000 3050.000
26.36000 375.000
26.57000 222.000
26.78000 186.000
26.99000 420.000
27.20000 435.000
27.41000 172.000
27.62000 154.000
27.83000 153.000
28.04000 206.000
28.25000 160.000
28.46000 215.000
28.67000 275.000
28.88000 1017.000
29.09000 210.000
29.30000 169.000
29.51000 191.000
29.72000 532.000
29.93000 353.000
30.14000 165.000
30.35000 326.000
30.56000 171.000
30.77000 147.000
30.98000 142.000
31.19000 141.000
31.40000 132.000
31.61000 145.000
31.82000 145.000
32.03000 137.000
32.24000 145.000
32.45000 131.000
32.66000 128.000
32.87000 120.000
33.08000 120.000
33.29000 160.000
33.50000 171.000
33.71000 135.000
33.92000 167.000
34.13000 125.000
34.34000 245.000
34.55000 111.000
34.76000 128.000
34.97000 154.000
35.18000 131.000
35.39000 104.000
35.60000 123.000
35.81000 531.000
36.02000 166.000
36.23000 683.000
36.44000 323.000
36.65000 184.000
36.86000 129.000
37.07000 220.000
37.28000 136.000
37.49000 123.000
37.70000 183.000
37.91000 102.000
38.12000 96.000
38.33000 1092.000
38.54000 128.000
38.75000 97.000
38.96000 89.000
39.17000 95.000
39.38000 91.000
39.59000 133.000
39.80000 93.000
40.01000 105.000
40.22000 83.000
40.43000 99.000
40.64000 98.000
40.85000 95.000
41.06000 140.000
41.27000 93.000
41.48000 80.000
41.69000 122.000
41.90000 133.000
42.11000 93.000
42.32000 90.000
42.53000 202.000
42.74000 96.000
42.95000 99.000
43.16000 98.000
43.37000 89.000
43.58000 91.000
43.79000 151.000
44.00000 195.000
44.21000 114.000
44.42000 74.000
44.63000 114.000
44.84000 436.000
45.05000 131.000
45.26000 107.000
45.47000 125.000
45.68000 121.000
45.89000 97.000
46.10000 92.000
46.31000 114.000
46.52000 88.000
46.73000 85.000
46.94000 113.000
47.15000 114.000
47.36000 91.000
47.57000 986.000
47.78000 79.000
47.99000 82.000
48.20000 101.000
48.41000 135.000
48.62000 96.000
48.83000 81.000
49.04000 89.000
49.25000 92.000
49.46000 87.000
49.67000 95.000
49.88000 72.000
50.09000 135.000
50.30000 289.000
50.51000 116.000
50.72000 71.000
50.93000 83.000
51.14000 94.000
51.35000 89.000
51.56000 93.000
51.77000 104.000
51.98000 92.000
52.19000 126.000
52.40000 95.000
52.61000 94.000
52.82000 131.000
53.03000 349.000
53.24000 78.000
53.45000 82.000
53.66000 119.000
53.87000 74.000
54.08000 91.000
54.29000 104.000
54.50000 213.000
54.71000 93.000
54.92000 138.000
55.13000 153.000
55.34000 221.000
55.55000 218.000
55.76000 126.000
55.97000 88.000
56.18000 246.000
56.39000 87.000
56.60000 103.000
56.81000 95.000
57.02000 86.000
57.23000 143.000
57.44000 87.000
57.65000 79.000
57.86000 92.000
58.07000 81.000
58.28000 77.000
58.49000 83.000
58.70000 63.000
58.91000 90.000
59.12000 79.000
59.33000 83.000
59.54000 73.000
59.75000 76.000
59.96000 105.000
60.17000 93.000
60.38000 72.000
60.59000 136.000
60.80000 71.000
61.01000 62.000
61.22000 71.000
61.43000 71.000
61.64000 70.000
61.85000 84.000
61.98500 105.000