File: ISoD/xrd_data/HSC073_ranges_combined.xy
2.0 9.0
2.21 3.0
2.42 10.0
2.63 3.0
2.84 10.0
3.05 10.0
3.26 118.0
3.47 432.0
3.68 433.0
3.89 460.0
4.1 527.0
4.31 520.0
4.52 525.0
4.73 562.0
4.94 586.0
5.15 645.0
5.36 619.0
5.57 692.0
5.78 641.0
5.99 704.0
6.2 693.0
6.41 719.0
6.62 772.0
6.83 780.0
7.04 792.0
7.25 736.0
7.46 779.0
7.67 745.0
7.88 787.0
8.09 776.0
8.3 809.0
8.51 859.0
8.72 792.0
8.93 815.0
9.14 816.0
9.35 837.0
9.56 847.0
9.77 792.0
9.98 846.0
10.19 843.0
10.4 840.0
10.61 839.0
10.82 836.0
11.03 831.0
11.24 897.0
11.45 877.0
11.66 880.0
11.87 869.0
12.08 904.0
12.29 871.0
12.5 896.0
12.71 868.0
12.92 916.0
13.13 863.0
13.34 932.0
13.55 925.0
13.76 943.0
13.97 925.0
14.18 982.0
14.39 1012.0
14.6 939.0
14.81 947.0
15.02 947.0
15.23 966.0
15.44 932.0
15.65 1020.0
15.86 920.0
16.07 970.0
16.28 937.0
16.49 1005.0
16.7 950.0
16.91 987.0
17.12 980.0
17.33 1010.0
17.54 988.0
17.75 1032.0
17.96 987.0
18.17 1045.0
18.38 1015.0
18.59 1029.0
18.8 1060.0
19.01 1058.0
19.22 1031.0
19.43 1057.0
19.64 1017.0
19.85 981.0
20.06 1071.0
20.27 1086.0
20.48 1040.0
20.69 1038.0
20.9 1049.0
21.11 1022.0
21.32 1106.0
21.53 1003.0
21.74 1090.0
21.95 1081.0
22.16 1072.0
22.37 1055.0
22.58 1078.0
22.79 1064.0
23.0 1032.0
23.21 1038.0
23.42 1050.0
23.63 1018.0
23.84 1026.0
24.05 1018.0
24.26 1028.0
24.47 966.0
24.68 1005.0
24.89 951.0
25.1 974.0
25.31 1016.0
25.52 993.0
25.73 974.0
25.94 1009.0
26.15 918.0
26.36 936.0
26.57 907.0
26.78 895.0
26.99 873.0
27.2 899.0
27.41 817.0
27.62 824.0
27.83 780.0
28.04 814.0
28.25 801.0
28.46 793.0
28.67 812.0
28.88 782.0
29.09 802.0
29.3 820.0
29.51 808.0
29.72 809.0
29.93 760.0
30.14 741.0
30.35 735.0
30.56 717.0
30.77 717.0
30.98 712.0
31.19 699.0
31.4 675.0
31.61 696.0
31.82 681.0
32.03 644.0
32.24 654.0
32.45 604.0
32.66 583.0
32.87 590.0
33.08 563.0
33.29 536.0
33.5 567.0
33.71 586.0
33.92 543.0
34.13 539.0
34.34 570.0
34.55 513.0
34.76 530.0
34.97 501.0
35.18 487.0
35.39 508.0
35.6 504.0
35.81 485.0
36.02 483.0
36.23 471.0
36.44 451.0
36.65 463.0
36.86 438.0
37.07 416.0
37.28 409.0
37.49 400.0
37.7 419.0
37.91 390.0
38.12 405.0
38.33 375.0
38.54 403.0
38.75 428.0
38.96 408.0
39.17 415.0
39.38 402.0
39.59 387.0
39.8 364.0
40.01 373.0
40.22 411.0
40.43 392.0
40.64 390.0
40.85 357.0
41.06 375.0
41.27 348.0
41.48 359.0
41.69 390.0
41.9 364.0
42.11 347.0
42.32 375.0
42.53 330.0
42.74 368.0
42.95 346.0
43.16 332.0
43.37 357.0
43.58 369.0
43.79 343.0
44.0 341.0
44.21 352.0
44.42 339.0
44.63 348.0
44.84 323.0
45.05 318.0
45.26 337.0
45.47 345.0
45.68 337.0
45.89 330.0
46.1 327.0
46.31 315.0
46.52 325.0
46.73 324.0
46.94 326.0
47.15 295.0
47.36 309.0
47.57 321.0
47.78 329.0
47.99 309.0
48.2 291.0
48.41 321.0
48.62 298.0
48.83 312.0
49.04 315.0
49.25 314.0
49.46 303.0
49.67 278.0
49.88 308.0
50.09 299.0
50.3 286.0
50.51 275.0
50.72 279.0
50.93 294.0
51.14 264.0
51.35 287.0
51.56 276.0
51.77 296.0
51.98 274.0
52.19 258.0
52.4 271.0
52.61 266.0
52.82 275.0
53.03 301.0
53.24 267.0
53.45 264.0
53.66 280.0
53.87 245.0
54.08 248.0
54.29 257.0
54.5 249.0
54.71 272.0
54.92 243.0
55.13 259.0
55.34 281.0
55.55 275.0
55.76 263.0
55.97 251.0
56.18 245.0
56.39 288.0
56.6 272.0
56.81 272.0
57.02 268.0
57.23 252.0
57.44 257.0
57.65 261.0
57.86 246.0
58.07 260.0
58.28 242.0
58.49 240.0
58.7 245.0
58.91 246.0
59.12 237.0
59.33 220.0
59.54 243.0
59.75 230.0
59.96 258.0
60.17 224.0
60.38 260.0
60.59 221.0
60.8 250.0
61.01 244.0
61.22 227.0
61.43 243.0
61.64 236.0
61.85 229.0
61.985 224.0