File: ISoD/xrd_data/HSC092.xy
2.00000 6.000
2.21000 5.000
2.42000 3.000
2.63000 5.000
2.84000 3.000
3.05000 7.000
3.26000 454.000
3.47000 419.000
3.68000 396.000
3.89000 384.000
4.10000 378.000
4.31000 359.000
4.52000 362.000
4.73000 353.000
4.94000 398.000
5.15000 361.000
5.36000 379.000
5.57000 393.000
5.78000 387.000
5.99000 405.000
6.20000 387.000
6.41000 415.000
6.62000 407.000
6.83000 388.000
7.04000 406.000
7.25000 400.000
7.46000 414.000
7.67000 408.000
7.88000 422.000
8.09000 415.000
8.30000 435.000
8.51000 444.000
8.72000 474.000
8.93000 437.000
9.14000 418.000
9.35000 449.000
9.56000 439.000
9.77000 455.000
9.98000 461.000
10.19000 481.000
10.40000 455.000
10.61000 470.000
10.82000 462.000
11.03000 470.000
11.24000 485.000
11.45000 479.000
11.66000 524.000
11.87000 618.000
12.08000 876.000
12.29000 593.000
12.50000 555.000
12.71000 647.000
12.92000 610.000
13.13000 563.000
13.34000 603.000
13.55000 557.000
13.76000 571.000
13.97000 594.000
14.18000 620.000
14.39000 616.000
14.60000 569.000
14.81000 592.000
15.02000 568.000
15.23000 595.000
15.44000 583.000
15.65000 609.000
15.86000 588.000
16.07000 586.000
16.28000 567.000
16.49000 570.000
16.70000 575.000
16.91000 576.000
17.12000 590.000
17.33000 569.000
17.54000 599.000
17.75000 594.000
17.96000 588.000
18.17000 585.000
18.38000 574.000
18.59000 613.000
18.80000 573.000
19.01000 564.000
19.22000 634.000
19.43000 577.000
19.64000 551.000
19.85000 594.000
20.06000 590.000
20.27000 592.000
20.48000 629.000
20.69000 632.000
20.90000 911.000
21.11000 990.000
21.32000 705.000
21.53000 583.000
21.74000 625.000
21.95000 622.000
22.16000 608.000
22.37000 600.000
22.58000 586.000
22.79000 585.000
23.00000 543.000
23.21000 572.000
23.42000 610.000
23.63000 611.000
23.84000 610.000
24.05000 587.000
24.26000 825.000
24.47000 692.000
24.68000 715.000
24.89000 697.000
25.10000 647.000
25.31000 621.000
25.52000 645.000
25.73000 672.000
25.94000 752.000
26.15000 1304.000
26.36000 1592.000
26.57000 1028.000
26.78000 853.000
26.99000 924.000
27.20000 1164.000
27.41000 1657.000
27.62000 2723.000
27.83000 3255.000
28.04000 2063.000
28.25000 1117.000
28.46000 844.000
28.67000 917.000
28.88000 1249.000
29.09000 1349.000
29.30000 926.000
29.51000 746.000
29.72000 589.000
29.93000 512.000
30.14000 512.000
30.35000 514.000
30.56000 514.000
30.77000 504.000
30.98000 465.000
31.19000 485.000
31.40000 481.000
31.61000 446.000
31.82000 470.000
32.03000 478.000
32.24000 676.000
32.45000 746.000
32.66000 480.000
32.87000 399.000
33.08000 419.000
33.29000 388.000
33.50000 359.000
33.71000 396.000
33.92000 353.000
34.13000 340.000
34.34000 372.000
34.55000 353.000
34.76000 382.000
34.97000 368.000
35.18000 365.000
35.39000 332.000
35.60000 337.000
35.81000 369.000
36.02000 377.000
36.23000 339.000
36.44000 339.000
36.65000 325.000
36.86000 304.000
37.07000 295.000
37.28000 293.000
37.49000 286.000
37.70000 308.000
37.91000 269.000
38.12000 276.000
38.33000 274.000
38.54000 272.000
38.75000 263.000
38.96000 276.000
39.17000 287.000
39.38000 263.000
39.59000 277.000
39.80000 277.000
40.01000 238.000
40.22000 280.000
40.43000 286.000
40.64000 255.000
40.85000 262.000
41.06000 290.000
41.27000 304.000
41.48000 269.000
41.69000 264.000
41.90000 288.000
42.11000 286.000
42.32000 267.000
42.53000 295.000
42.74000 373.000
42.95000 322.000
43.16000 293.000
43.37000 249.000
43.58000 281.000
43.79000 288.000
44.00000 263.000
44.21000 302.000
44.42000 326.000
44.63000 381.000
44.84000 398.000
45.05000 322.000
45.26000 283.000
45.47000 282.000
45.68000 317.000
45.89000 304.000
46.10000 303.000
46.31000 287.000
46.52000 305.000
46.73000 306.000
46.94000 311.000
47.15000 273.000
47.36000 235.000
47.57000 242.000
47.78000 232.000
47.99000 250.000
48.20000 220.000
48.41000 251.000
48.62000 232.000
48.83000 214.000
49.04000 259.000
49.25000 238.000
49.46000 207.000
49.67000 267.000
49.88000 233.000
50.09000 260.000
50.30000 266.000
50.51000 301.000
50.72000 322.000
50.93000 325.000
51.14000 302.000
51.35000 292.000
51.56000 231.000
51.77000 243.000
51.98000 237.000
52.19000 218.000
52.40000 207.000
52.61000 232.000
52.82000 215.000
53.03000 220.000
53.24000 212.000
53.45000 225.000
53.66000 221.000
53.87000 238.000
54.08000 271.000
54.29000 275.000
54.50000 289.000
54.71000 285.000
54.92000 204.000
55.13000 191.000
55.34000 188.000
55.55000 199.000
55.76000 196.000
55.97000 208.000
56.18000 196.000
56.39000 203.000
56.60000 213.000
56.81000 223.000
57.02000 235.000
57.23000 259.000
57.44000 243.000
57.65000 258.000
57.86000 254.000
58.07000 228.000
58.28000 213.000
58.49000 220.000
58.70000 202.000
58.91000 207.000
59.12000 219.000
59.33000 183.000
59.54000 192.000
59.75000 191.000
59.96000 181.000
60.17000 177.000
60.38000 199.000
60.59000 181.000
60.80000 197.000
61.01000 192.000
61.22000 191.000
61.43000 187.000
61.64000 185.000
61.85000 177.000
61.98500 157.000