File: ISoD/xrd_data/HSC093.xy
2.00000 4.000
2.21000 6.000
2.42000 4.000
2.63000 4.000
2.84000 6.000
3.05000 1550.000
3.26000 1943.000
3.47000 1844.000
3.68000 1745.000
3.89000 1633.000
4.10000 1571.000
4.31000 1497.000
4.52000 1400.000
4.73000 1360.000
4.94000 1231.000
5.15000 1217.000
5.36000 1186.000
5.57000 1108.000
5.78000 1136.000
5.99000 1048.000
6.20000 1019.000
6.41000 999.000
6.62000 978.000
6.83000 914.000
7.04000 921.000
7.25000 917.000
7.46000 922.000
7.67000 895.000
7.88000 798.000
8.09000 829.000
8.30000 845.000
8.51000 833.000
8.72000 781.000
8.93000 821.000
9.14000 757.000
9.35000 749.000
9.56000 791.000
9.77000 683.000
9.98000 745.000
10.19000 743.000
10.40000 743.000
10.61000 767.000
10.82000 738.000
11.03000 711.000
11.24000 762.000
11.45000 736.000
11.66000 742.000
11.87000 751.000
12.08000 750.000
12.29000 745.000
12.50000 740.000
12.71000 747.000
12.92000 753.000
13.13000 746.000
13.34000 749.000
13.55000 756.000
13.76000 754.000
13.97000 751.000
14.18000 757.000
14.39000 816.000
14.60000 753.000
14.81000 830.000
15.02000 809.000
15.23000 828.000
15.44000 802.000
15.65000 816.000
15.86000 833.000
16.07000 824.000
16.28000 850.000
16.49000 836.000
16.70000 876.000
16.91000 832.000
17.12000 856.000
17.33000 885.000
17.54000 924.000
17.75000 927.000
17.96000 904.000
18.17000 905.000
18.38000 891.000
18.59000 904.000
18.80000 921.000
19.01000 930.000
19.22000 914.000
19.43000 944.000
19.64000 941.000
19.85000 922.000
20.06000 986.000
20.27000 950.000
20.48000 973.000
20.69000 1031.000
20.90000 981.000
21.11000 971.000
21.32000 959.000
21.53000 967.000
21.74000 1037.000
21.95000 1034.000
22.16000 987.000
22.37000 975.000
22.58000 960.000
22.79000 965.000
23.00000 961.000
23.21000 995.000
23.42000 962.000
23.63000 974.000
23.84000 912.000
24.05000 973.000
24.26000 965.000
24.47000 927.000
24.68000 964.000
24.89000 933.000
25.10000 919.000
25.31000 901.000
25.52000 896.000
25.73000 890.000
25.94000 810.000
26.15000 887.000
26.36000 811.000
26.57000 862.000
26.78000 795.000
26.99000 822.000
27.20000 796.000
27.41000 759.000
27.62000 722.000
27.83000 707.000
28.04000 715.000
28.25000 692.000
28.46000 704.000
28.67000 674.000
28.88000 670.000
29.09000 690.000
29.30000 629.000
29.51000 622.000
29.72000 638.000
29.93000 623.000
30.14000 556.000
30.35000 576.000
30.56000 577.000
30.77000 576.000
30.98000 561.000
31.19000 534.000
31.40000 541.000
31.61000 519.000
31.82000 484.000
32.03000 492.000
32.24000 484.000
32.45000 506.000
32.66000 492.000
32.87000 456.000
33.08000 449.000
33.29000 456.000
33.50000 450.000
33.71000 448.000
33.92000 453.000
34.13000 421.000
34.34000 414.000
34.55000 405.000
34.76000 386.000
34.97000 414.000
35.18000 404.000
35.39000 426.000
35.60000 378.000
35.81000 390.000
36.02000 371.000
36.23000 352.000
36.44000 350.000
36.65000 357.000
36.86000 354.000
37.07000 374.000
37.28000 329.000
37.49000 333.000
37.70000 344.000
37.91000 341.000
38.12000 340.000
38.33000 329.000
38.54000 356.000
38.75000 348.000
38.96000 365.000
39.17000 334.000
39.38000 334.000
39.59000 364.000
39.80000 328.000
40.01000 333.000
40.22000 345.000
40.43000 349.000
40.64000 329.000
40.85000 332.000
41.06000 345.000
41.27000 325.000
41.48000 352.000
41.69000 330.000
41.90000 355.000
42.11000 358.000
42.32000 346.000
42.53000 328.000
42.74000 341.000
42.95000 316.000
43.16000 312.000
43.37000 341.000
43.58000 337.000
43.79000 328.000
44.00000 354.000
44.21000 322.000
44.42000 307.000
44.63000 309.000
44.84000 332.000
45.05000 318.000
45.26000 327.000
45.47000 325.000
45.68000 319.000
45.89000 296.000
46.10000 318.000
46.31000 298.000
46.52000 293.000
46.73000 312.000
46.94000 299.000
47.15000 287.000
47.36000 287.000
47.57000 277.000
47.78000 283.000
47.99000 319.000
48.20000 294.000
48.41000 271.000
48.62000 288.000
48.83000 269.000
49.04000 283.000
49.25000 263.000
49.46000 283.000
49.67000 277.000
49.88000 248.000
50.09000 286.000
50.30000 249.000
50.51000 254.000
50.72000 276.000
50.93000 248.000
51.14000 264.000
51.35000 249.000
51.56000 271.000
51.77000 254.000
51.98000 228.000
52.19000 264.000
52.40000 227.000
52.61000 233.000
52.82000 281.000
53.03000 262.000
53.24000 229.000
53.45000 236.000
53.66000 240.000
53.87000 229.000
54.08000 243.000
54.29000 222.000
54.50000 225.000
54.71000 210.000
54.92000 216.000
55.13000 249.000
55.34000 242.000
55.55000 247.000
55.76000 210.000
55.97000 229.000
56.18000 230.000
56.39000 218.000
56.60000 208.000
56.81000 219.000
57.02000 237.000
57.23000 214.000
57.44000 200.000
57.65000 227.000
57.86000 237.000
58.07000 192.000
58.28000 206.000
58.49000 221.000
58.70000 197.000
58.91000 215.000
59.12000 215.000
59.33000 221.000
59.54000 202.000
59.75000 195.000
59.96000 209.000
60.17000 211.000
60.38000 216.000
60.59000 194.000
60.80000 194.000
61.01000 165.000
61.22000 189.000
61.43000 206.000
61.64000 187.000
61.85000 194.000
61.98500 205.000