File: ISoD/xrd_data/HSC026_nach410C_range_2.xy
2.00000 712.000
2.21000 576.000
2.42000 423.000
2.63000 340.000
2.84000 303.000
3.05000 251.000
3.26000 225.000
3.47000 215.000
3.68000 204.000
3.89000 197.000
4.10000 194.000
4.31000 172.000
4.52000 176.000
4.73000 172.000
4.94000 174.000
5.15000 164.000
5.36000 180.000
5.57000 180.000
5.78000 201.000
5.99000 179.000
6.20000 165.000
6.41000 167.000
6.62000 173.000
6.83000 172.000
7.04000 157.000
7.25000 192.000
7.46000 169.000
7.67000 170.000
7.88000 173.000
8.09000 190.000
8.30000 191.000
8.51000 248.000
8.72000 261.000
8.93000 200.000
9.14000 179.000
9.35000 167.000
9.56000 166.000
9.77000 178.000
9.98000 215.000
10.19000 180.000
10.40000 202.000
10.61000 186.000
10.82000 186.000
11.03000 224.000
11.24000 299.000
11.45000 512.000
11.66000 575.000
11.87000 414.000
12.08000 256.000
12.29000 178.000
12.50000 178.000
12.71000 208.000
12.92000 259.000
13.13000 248.000
13.34000 194.000
13.55000 184.000
13.76000 195.000
13.97000 166.000
14.18000 164.000
14.39000 173.000
14.60000 153.000
14.81000 156.000
15.02000 163.000
15.23000 150.000
15.44000 162.000
15.65000 166.000
15.86000 174.000
16.07000 181.000
16.28000 188.000
16.49000 183.000
16.70000 165.000
16.91000 164.000
17.12000 175.000
17.33000 178.000
17.54000 170.000
17.75000 192.000
17.96000 176.000
18.17000 189.000
18.38000 174.000
18.59000 215.000
18.80000 175.000
19.01000 190.000
19.22000 191.000
19.43000 204.000
19.64000 201.000
19.85000 222.000
20.06000 219.000
20.27000 216.000
20.48000 226.000
20.69000 231.000
20.90000 200.000
21.11000 222.000
21.32000 214.000
21.53000 227.000
21.74000 226.000
21.95000 228.000
22.16000 227.000
22.37000 218.000
22.58000 226.000
22.79000 233.000
23.00000 233.000
23.21000 247.000
23.42000 247.000
23.63000 249.000
23.84000 275.000
24.05000 263.000
24.26000 278.000
24.47000 277.000
24.68000 290.000
24.89000 300.000
25.10000 397.000
25.31000 416.000
25.52000 573.000
25.73000 527.000
25.94000 355.000
26.15000 345.000
26.36000 346.000
26.57000 366.000
26.78000 373.000
26.99000 399.000
27.20000 504.000
27.41000 604.000
27.62000 564.000
27.83000 336.000
28.04000 272.000
28.25000 259.000
28.46000 256.000
28.67000 205.000
28.88000 224.000
29.09000 206.000
29.30000 211.000
29.51000 191.000
29.72000 214.000
29.93000 223.000
30.14000 227.000
30.35000 255.000
30.56000 212.000
30.77000 215.000
30.98000 196.000
31.19000 199.000
31.40000 186.000
31.61000 189.000
31.82000 162.000
32.03000 163.000
32.24000 160.000
32.45000 154.000
32.66000 152.000
32.87000 172.000
33.08000 161.000
33.29000 139.000
33.50000 151.000
33.71000 138.000
33.92000 147.000
34.13000 143.000
34.34000 133.000
34.55000 143.000
34.76000 135.000
34.97000 122.000
35.18000 148.000
35.39000 117.000
35.60000 150.000
35.81000 125.000
36.02000 139.000
36.23000 109.000
36.44000 126.000
36.65000 132.000
36.86000 117.000
37.07000 103.000
37.28000 105.000
37.49000 118.000
37.70000 102.000
37.91000 92.000
38.12000 101.000
38.33000 101.000
38.54000 93.000
38.75000 117.000
38.96000 115.000
39.17000 95.000
39.38000 105.000
39.59000 125.000
39.80000 112.000
40.01000 107.000
40.22000 111.000
40.43000 123.000
40.64000 121.000
40.85000 111.000
41.06000 123.000
41.27000 115.000
41.48000 103.000
41.69000 111.000
41.90000 105.000
42.11000 105.000
42.32000 96.000
42.53000 115.000
42.74000 97.000
42.95000 100.000
43.16000 99.000
43.37000 98.000
43.58000 109.000
43.79000 98.000
44.00000 110.000
44.21000 103.000
44.42000 91.000
44.63000 100.000
44.84000 97.000
45.05000 94.000
45.26000 90.000
45.47000 98.000
45.68000 90.000
45.89000 110.000
46.10000 107.000
46.31000 86.000
46.52000 99.000
46.73000 93.000
46.94000 91.000
47.15000 84.000
47.36000 88.000
47.57000 78.000
47.78000 91.000
47.99000 87.000
48.20000 83.000
48.41000 79.000
48.62000 90.000
48.83000 92.000
49.04000 94.000
49.25000 83.000
49.46000 79.000
49.67000 85.000
49.88000 82.000
50.09000 89.000
50.30000 96.000
50.51000 65.000
50.72000 83.000
50.93000 84.000
51.14000 81.000
51.35000 92.000
51.56000 87.000
51.77000 91.000
51.98000 87.000
52.19000 100.000
52.40000 76.000
52.61000 89.000
52.82000 80.000
53.03000 81.000
53.24000 83.000
53.45000 71.000
53.66000 89.000
53.87000 82.000
54.08000 89.000
54.29000 84.000
54.50000 74.000
54.71000 87.000
54.92000 85.000
55.13000 68.000
55.34000 87.000
55.55000 81.000
55.76000 84.000
55.97000 82.000
56.18000 76.000
56.39000 76.000
56.60000 92.000
56.81000 99.000
57.02000 76.000
57.23000 85.000
57.44000 73.000
57.65000 72.000
57.86000 93.000
58.07000 80.000
58.28000 76.000
58.49000 76.000
58.70000 83.000
58.91000 75.000
59.12000 71.000
59.33000 80.000
59.54000 74.000
59.75000 70.000
59.96000 76.000
60.17000 71.000
60.38000 73.000
60.59000 71.000
60.80000 73.000
61.01000 72.000
61.22000 87.000
61.43000 75.000
61.64000 80.000
61.85000 64.000
61.98500 63.000