File: ISoD/xrd_data/HSC010.xy
2.00000 565.000
2.21000 415.000
2.42000 333.000
2.63000 281.000
2.84000 254.000
3.05000 217.000
3.26000 221.000
3.47000 217.000
3.68000 209.000
3.89000 214.000
4.10000 200.000
4.31000 170.000
4.52000 192.000
4.73000 189.000
4.94000 180.000
5.15000 156.000
5.36000 181.000
5.57000 207.000
5.78000 180.000
5.99000 253.000
6.20000 285.000
6.41000 171.000
6.62000 185.000
6.83000 171.000
7.04000 192.000
7.25000 203.000
7.46000 158.000
7.67000 174.000
7.88000 183.000
8.09000 179.000
8.30000 184.000
8.51000 193.000
8.72000 175.000
8.93000 174.000
9.14000 174.000
9.35000 169.000
9.56000 166.000
9.77000 193.000
9.98000 185.000
10.19000 177.000
10.40000 183.000
10.61000 206.000
10.82000 192.000
11.03000 199.000
11.24000 199.000
11.45000 174.000
11.66000 182.000
11.87000 221.000
12.08000 326.000
12.29000 1251.000
12.50000 292.000
12.71000 267.000
12.92000 246.000
13.13000 256.000
13.34000 349.000
13.55000 244.000
13.76000 250.000
13.97000 233.000
14.18000 231.000
14.39000 230.000
14.60000 214.000
14.81000 213.000
15.02000 218.000
15.23000 217.000
15.44000 204.000
15.65000 212.000
15.86000 235.000
16.07000 207.000
16.28000 235.000
16.49000 260.000
16.70000 229.000
16.91000 264.000
17.12000 258.000
17.33000 229.000
17.54000 241.000
17.75000 237.000
17.96000 252.000
18.17000 256.000
18.38000 261.000
18.59000 249.000
18.80000 259.000
19.01000 247.000
19.22000 229.000
19.43000 291.000
19.64000 314.000
19.85000 249.000
20.06000 253.000
20.27000 255.000
20.48000 239.000
20.69000 265.000
20.90000 251.000
21.11000 252.000
21.32000 282.000
21.53000 273.000
21.74000 274.000
21.95000 289.000
22.16000 306.000
22.37000 272.000
22.58000 267.000
22.79000 272.000
23.00000 254.000
23.21000 303.000
23.42000 303.000
23.63000 267.000
23.84000 285.000
24.05000 291.000
24.26000 267.000
24.47000 286.000
24.68000 307.000
24.89000 303.000
25.10000 305.000
25.31000 316.000
25.52000 309.000
25.73000 445.000
25.94000 385.000
26.15000 424.000
26.36000 586.000
26.57000 494.000
26.78000 572.000
26.99000 588.000
27.20000 790.000
27.41000 711.000
27.62000 703.000
27.83000 818.000
28.04000 467.000
28.25000 404.000
28.46000 311.000
28.67000 324.000
28.88000 307.000
29.09000 276.000
29.30000 246.000
29.51000 247.000
29.72000 246.000
29.93000 255.000
30.14000 247.000
30.35000 254.000
30.56000 224.000
30.77000 242.000
30.98000 251.000
31.19000 240.000
31.40000 207.000
31.61000 216.000
31.82000 193.000
32.03000 171.000
32.24000 188.000
32.45000 160.000
32.66000 152.000
32.87000 161.000
33.08000 167.000
33.29000 177.000
33.50000 165.000
33.71000 185.000
33.92000 182.000
34.13000 169.000
34.34000 172.000
34.55000 168.000
34.76000 151.000
34.97000 138.000
35.18000 137.000
35.39000 149.000
35.60000 124.000
35.81000 129.000
36.02000 133.000
36.23000 123.000
36.44000 132.000
36.65000 119.000
36.86000 133.000
37.07000 137.000
37.28000 127.000
37.49000 135.000
37.70000 127.000
37.91000 113.000
38.12000 118.000
38.33000 113.000
38.54000 112.000
38.75000 118.000
38.96000 120.000
39.17000 129.000
39.38000 121.000
39.59000 154.000
39.80000 123.000
40.01000 119.000
40.22000 115.000
40.43000 121.000
40.64000 121.000
40.85000 128.000
41.06000 119.000
41.27000 134.000
41.48000 110.000
41.69000 122.000
41.90000 116.000
42.11000 125.000
42.32000 135.000
42.53000 122.000
42.74000 131.000
42.95000 107.000
43.16000 128.000
43.37000 109.000
43.58000 107.000
43.79000 113.000
44.00000 120.000
44.21000 131.000
44.42000 136.000
44.63000 125.000
44.84000 124.000
45.05000 107.000
45.26000 107.000
45.47000 93.000
45.68000 105.000
45.89000 113.000
46.10000 99.000
46.31000 126.000
46.52000 111.000
46.73000 121.000
46.94000 119.000
47.15000 100.000
47.36000 113.000
47.57000 107.000
47.78000 97.000
47.99000 100.000
48.20000 108.000
48.41000 116.000
48.62000 99.000
48.83000 91.000
49.04000 107.000
49.25000 111.000
49.46000 90.000
49.67000 116.000
49.88000 105.000
50.09000 98.000
50.30000 95.000
50.51000 120.000
50.72000 94.000
50.93000 109.000
51.14000 100.000
51.35000 95.000
51.56000 83.000
51.77000 91.000
51.98000 103.000
52.19000 97.000
52.40000 95.000
52.61000 111.000
52.82000 110.000
53.03000 97.000
53.24000 89.000
53.45000 107.000
53.66000 97.000
53.87000 81.000
54.08000 93.000
54.29000 96.000
54.50000 88.000
54.71000 89.000
54.92000 96.000
55.13000 89.000
55.34000 102.000
55.55000 102.000
55.76000 120.000
55.97000 107.000
56.18000 109.000
56.39000 83.000
56.60000 94.000
56.81000 92.000
57.02000 105.000
57.23000 87.000
57.44000 94.000
57.65000 93.000
57.86000 96.000
58.07000 81.000
58.28000 101.000
58.49000 91.000
58.70000 80.000
58.91000 74.000
59.12000 88.000
59.33000 94.000
59.54000 85.000
59.75000 78.000
59.96000 101.000
60.17000 77.000
60.38000 79.000
60.59000 86.000
60.80000 92.000
61.01000 85.000
61.22000 79.000
61.43000 76.000
61.64000 72.000
61.85000 89.000
61.98500 88.000