File: ISoD/xrd_data/HSC039_AC3.xy
2.00000 1.000
2.21000 3.000
2.42000 1.000
2.63000 3.000
2.84000 7.000
3.05000 192.000
3.26000 204.000
3.47000 192.000
3.68000 174.000
3.89000 161.000
4.10000 149.000
4.31000 128.000
4.52000 126.000
4.73000 117.000
4.94000 123.000
5.15000 114.000
5.36000 122.000
5.57000 127.000
5.78000 109.000
5.99000 114.000
6.20000 110.000
6.41000 129.000
6.62000 112.000
6.83000 128.000
7.04000 147.000
7.25000 552.000
7.46000 109.000
7.67000 101.000
7.88000 114.000
8.09000 108.000
8.30000 109.000
8.51000 112.000
8.72000 113.000
8.93000 113.000
9.14000 106.000
9.35000 119.000
9.56000 122.000
9.77000 102.000
9.98000 127.000
10.19000 343.000
10.40000 235.000
10.61000 128.000
10.82000 98.000
11.03000 117.000
11.24000 123.000
11.45000 103.000
11.66000 96.000
11.87000 122.000
12.08000 138.000
12.29000 109.000
12.50000 221.000
12.71000 438.000
12.92000 113.000
13.13000 113.000
13.34000 107.000
13.55000 113.000
13.76000 99.000
13.97000 114.000
14.18000 109.000
14.39000 128.000
14.60000 220.000
14.81000 112.000
15.02000 108.000
15.23000 122.000
15.44000 122.000
15.65000 117.000
15.86000 110.000
16.07000 129.000
16.28000 206.000
16.49000 121.000
16.70000 119.000
16.91000 126.000
17.12000 110.000
17.33000 110.000
17.54000 130.000
17.75000 127.000
17.96000 125.000
18.17000 111.000
18.38000 128.000
18.59000 146.000
18.80000 145.000
19.01000 160.000
19.22000 136.000
19.43000 127.000
19.64000 130.000
19.85000 157.000
20.06000 140.000
20.27000 154.000
20.48000 156.000
20.69000 188.000
20.90000 184.000
21.11000 159.000
21.32000 162.000
21.53000 169.000
21.74000 249.000
21.95000 611.000
22.16000 189.000
22.37000 155.000
22.58000 135.000
22.79000 149.000
23.00000 164.000
23.21000 445.000
23.42000 159.000
23.63000 167.000
23.84000 170.000
24.05000 235.000
24.26000 499.000
24.47000 273.000
24.68000 167.000
24.89000 154.000
25.10000 157.000
25.31000 159.000
25.52000 169.000
25.73000 170.000
25.94000 158.000
26.15000 227.000
26.36000 273.000
26.57000 866.000
26.78000 215.000
26.99000 177.000
27.20000 183.000
27.41000 344.000
27.62000 401.000
27.83000 173.000
28.04000 165.000
28.25000 165.000
28.46000 173.000
28.67000 163.000
28.88000 171.000
29.09000 202.000
29.30000 204.000
29.51000 373.000
29.72000 157.000
29.93000 177.000
30.14000 210.000
30.35000 935.000
30.56000 202.000
30.77000 138.000
30.98000 155.000
31.19000 169.000
31.40000 197.000
31.61000 145.000
31.82000 203.000
32.03000 310.000
32.24000 171.000
32.45000 141.000
32.66000 149.000
32.87000 157.000
33.08000 544.000
33.29000 138.000
33.50000 145.000
33.71000 183.000
33.92000 559.000
34.13000 137.000
34.34000 156.000
34.55000 156.000
34.76000 535.000
34.97000 144.000
35.18000 136.000
35.39000 124.000
35.60000 141.000
35.81000 88.000
36.02000 127.000
36.23000 213.000
36.44000 135.000
36.65000 158.000
36.86000 198.000
37.07000 152.000
37.28000 106.000
37.49000 114.000
37.70000 117.000
37.91000 92.000
38.12000 106.000
38.33000 138.000
38.54000 158.000
38.75000 96.000
38.96000 100.000
39.17000 119.000
39.38000 95.000
39.59000 103.000
39.80000 272.000
40.01000 189.000
40.22000 107.000
40.43000 100.000
40.64000 97.000
40.85000 125.000
41.06000 113.000
41.27000 118.000
41.48000 93.000
41.69000 94.000
41.90000 98.000
42.11000 185.000
42.32000 105.000
42.53000 84.000
42.74000 111.000
42.95000 101.000
43.16000 70.000
43.37000 95.000
43.58000 149.000
43.79000 98.000
44.00000 178.000
44.21000 149.000
44.42000 87.000
44.63000 104.000
44.84000 381.000
45.05000 103.000
45.26000 123.000
45.47000 110.000
45.68000 88.000
45.89000 75.000
46.10000 105.000
46.31000 93.000
46.52000 89.000
46.73000 89.000
46.94000 85.000
47.15000 88.000
47.36000 81.000
47.57000 84.000
47.78000 81.000
47.99000 182.000
48.20000 122.000
48.41000 82.000
48.62000 156.000
48.83000 85.000
49.04000 116.000
49.25000 138.000
49.46000 93.000
49.67000 90.000
49.88000 104.000
50.09000 112.000
50.30000 130.000
50.51000 108.000
50.72000 105.000
50.93000 99.000
51.14000 89.000
51.35000 96.000
51.56000 106.000
51.77000 88.000
51.98000 79.000
52.19000 83.000
52.40000 82.000
52.61000 97.000
52.82000 194.000
53.03000 106.000
53.24000 98.000
53.45000 452.000
53.66000 100.000
53.87000 105.000
54.08000 111.000
54.29000 91.000
54.50000 87.000
54.71000 94.000
54.92000 117.000
55.13000 253.000
55.34000 108.000
55.55000 79.000
55.76000 127.000
55.97000 84.000
56.18000 107.000
56.39000 101.000
56.60000 80.000
56.81000 84.000
57.02000 89.000
57.23000 140.000
57.44000 197.000
57.65000 86.000
57.86000 91.000
58.07000 95.000
58.28000 89.000
58.49000 214.000
58.70000 91.000
58.91000 85.000
59.12000 93.000
59.33000 105.000
59.54000 202.000
59.75000 102.000
59.96000 98.000
60.17000 117.000
60.38000 100.000
60.59000 88.000
60.80000 86.000
61.01000 104.000
61.22000 151.000
61.43000 99.000
61.64000 124.000
61.85000 101.000
61.98500 80.000