File: ISoD/xrd_data/HSC087.xy
2.00000 1.000
2.21000 1.000
2.42000 1.000
2.63000 5.000
2.84000 1.000
3.05000 1.000
3.26000 74.000
3.47000 151.000
3.68000 152.000
3.89000 154.000
4.10000 134.000
4.31000 148.000
4.52000 148.000
4.73000 165.000
4.94000 192.000
5.15000 185.000
5.36000 192.000
5.57000 191.000
5.78000 199.000
5.99000 282.000
6.20000 682.000
6.41000 496.000
6.62000 225.000
6.83000 180.000
7.04000 191.000
7.25000 196.000
7.46000 224.000
7.67000 203.000
7.88000 198.000
8.09000 225.000
8.30000 224.000
8.51000 209.000
8.72000 223.000
8.93000 244.000
9.14000 238.000
9.35000 229.000
9.56000 296.000
9.77000 419.000
9.98000 421.000
10.19000 534.000
10.40000 1007.000
10.61000 358.000
10.82000 243.000
11.03000 229.000
11.24000 230.000
11.45000 243.000
11.66000 229.000
11.87000 224.000
12.08000 259.000
12.29000 245.000
12.50000 394.000
12.71000 279.000
12.92000 295.000
13.13000 230.000
13.34000 219.000
13.55000 212.000
13.76000 216.000
13.97000 231.000
14.18000 231.000
14.39000 210.000
14.60000 230.000
14.81000 238.000
15.02000 347.000
15.23000 240.000
15.44000 253.000
15.65000 225.000
15.86000 218.000
16.07000 235.000
16.28000 233.000
16.49000 233.000
16.70000 248.000
16.91000 232.000
17.12000 306.000
17.33000 279.000
17.54000 277.000
17.75000 340.000
17.96000 415.000
18.17000 293.000
18.38000 279.000
18.59000 268.000
18.80000 398.000
19.01000 320.000
19.22000 605.000
19.43000 296.000
19.64000 262.000
19.85000 261.000
20.06000 239.000
20.27000 242.000
20.48000 231.000
20.69000 252.000
20.90000 251.000
21.11000 230.000
21.32000 244.000
21.53000 239.000
21.74000 217.000
21.95000 221.000
22.16000 232.000
22.37000 244.000
22.58000 226.000
22.79000 243.000
23.00000 242.000
23.21000 235.000
23.42000 260.000
23.63000 226.000
23.84000 251.000
24.05000 255.000
24.26000 303.000
24.47000 539.000
24.68000 374.000
24.89000 341.000
25.10000 558.000
25.31000 419.000
25.52000 536.000
25.73000 567.000
25.94000 480.000
26.15000 583.000
26.36000 520.000
26.57000 1226.000
26.78000 483.000
26.99000 437.000
27.20000 488.000
27.41000 490.000
27.62000 1419.000
27.83000 557.000
28.04000 564.000
28.25000 564.000
28.46000 520.000
28.67000 437.000
28.88000 373.000
29.09000 340.000
29.30000 350.000
29.51000 340.000
29.72000 343.000
29.93000 277.000
30.14000 282.000
30.35000 413.000
30.56000 432.000
30.77000 283.000
30.98000 355.000
31.19000 257.000
31.40000 245.000
31.61000 353.000
31.82000 234.000
32.03000 348.000
32.24000 235.000
32.45000 195.000
32.66000 300.000
32.87000 182.000
33.08000 244.000
33.29000 186.000
33.50000 176.000
33.71000 269.000
33.92000 231.000
34.13000 187.000
34.34000 177.000
34.55000 181.000
34.76000 183.000
34.97000 192.000
35.18000 178.000
35.39000 182.000
35.60000 160.000
35.81000 366.000
36.02000 174.000
36.23000 192.000
36.44000 221.000
36.65000 211.000
36.86000 173.000
37.07000 174.000
37.28000 142.000
37.49000 173.000
37.70000 159.000
37.91000 163.000
38.12000 149.000
38.33000 132.000
38.54000 153.000
38.75000 225.000
38.96000 171.000
39.17000 146.000
39.38000 138.000
39.59000 141.000
39.80000 143.000
40.01000 173.000
40.22000 130.000
40.43000 131.000
40.64000 147.000
40.85000 203.000
41.06000 142.000
41.27000 115.000
41.48000 130.000
41.69000 109.000
41.90000 126.000
42.11000 122.000
42.32000 173.000
42.53000 132.000
42.74000 131.000
42.95000 130.000
43.16000 166.000
43.37000 155.000
43.58000 116.000
43.79000 112.000
44.00000 124.000
44.21000 115.000
44.42000 108.000
44.63000 133.000
44.84000 105.000
45.05000 123.000
45.26000 108.000
45.47000 148.000
45.68000 110.000
45.89000 123.000
46.10000 120.000
46.31000 139.000
46.52000 121.000
46.73000 108.000
46.94000 132.000
47.15000 127.000
47.36000 111.000
47.57000 135.000
47.78000 130.000
47.99000 132.000
48.20000 90.000
48.41000 125.000
48.62000 109.000
48.83000 102.000
49.04000 123.000
49.25000 114.000
49.46000 122.000
49.67000 100.000
49.88000 134.000
50.09000 124.000
50.30000 130.000
50.51000 145.000
50.72000 127.000
50.93000 105.000
51.14000 112.000
51.35000 94.000
51.56000 92.000
51.77000 104.000
51.98000 102.000
52.19000 113.000
52.40000 117.000
52.61000 108.000
52.82000 136.000
53.03000 136.000
53.24000 110.000
53.45000 152.000
53.66000 127.000
53.87000 122.000
54.08000 124.000
54.29000 103.000
54.50000 106.000
54.71000 124.000
54.92000 108.000
55.13000 127.000
55.34000 136.000
55.55000 125.000
55.76000 134.000
55.97000 112.000
56.18000 121.000
56.39000 95.000
56.60000 91.000
56.81000 91.000
57.02000 106.000
57.23000 105.000
57.44000 103.000
57.65000 86.000
57.86000 100.000
58.07000 107.000
58.28000 94.000
58.49000 123.000
58.70000 132.000
58.91000 102.000
59.12000 90.000
59.33000 113.000
59.54000 104.000
59.75000 89.000
59.96000 110.000
60.17000 75.000
60.38000 91.000
60.59000 76.000
60.80000 81.000
61.01000 97.000
61.22000 82.000
61.43000 89.000
61.64000 75.000
61.85000 97.000
61.98500 83.000