File: ISoD/xrd_data/HSC072_ranges_combined.xy
2.0 9.0
2.21 5.0
2.42 6.0
2.63 8.0
2.84 6.0
3.05 6.0
3.26 280.0
3.47 518.0
3.68 602.0
3.89 540.0
4.1 550.0
4.31 556.0
4.52 537.0
4.73 569.0
4.94 567.0
5.15 604.0
5.36 613.0
5.57 616.0
5.78 601.0
5.99 679.0
6.2 653.0
6.41 636.0
6.62 705.0
6.83 678.0
7.04 714.0
7.25 702.0
7.46 705.0
7.67 703.0
7.88 709.0
8.09 739.0
8.3 753.0
8.51 729.0
8.72 761.0
8.93 764.0
9.14 717.0
9.35 714.0
9.56 750.0
9.77 755.0
9.98 744.0
10.19 787.0
10.4 766.0
10.61 783.0
10.82 783.0
11.03 759.0
11.24 763.0
11.45 753.0
11.66 757.0
11.87 780.0
12.08 738.0
12.29 815.0
12.5 780.0
12.71 769.0
12.92 809.0
13.13 745.0
13.34 806.0
13.55 766.0
13.76 787.0
13.97 754.0
14.18 782.0
14.39 766.0
14.6 750.0
14.81 749.0
15.02 805.0
15.23 769.0
15.44 796.0
15.65 784.0
15.86 797.0
16.07 795.0
16.28 804.0
16.49 768.0
16.7 762.0
16.91 769.0
17.12 786.0
17.33 782.0
17.54 808.0
17.75 815.0
17.96 787.0
18.17 812.0
18.38 819.0
18.59 875.0
18.8 798.0
19.01 856.0
19.22 838.0
19.43 848.0
19.64 815.0
19.85 806.0
20.06 843.0
20.27 815.0
20.48 839.0
20.69 874.0
20.9 823.0
21.11 831.0
21.32 834.0
21.53 845.0
21.74 878.0
21.95 820.0
22.16 850.0
22.37 814.0
22.58 847.0
22.79 855.0
23.0 831.0
23.21 813.0
23.42 837.0
23.63 839.0
23.84 767.0
24.05 796.0
24.26 859.0
24.47 786.0
24.68 848.0
24.89 871.0
25.1 796.0
25.31 845.0
25.52 878.0
25.73 886.0
25.94 885.0
26.15 841.0
26.36 831.0
26.57 820.0
26.78 838.0
26.99 854.0
27.2 878.0
27.41 930.0
27.62 942.0
27.83 903.0
28.04 880.0
28.25 868.0
28.46 794.0
28.67 784.0
28.88 695.0
29.09 787.0
29.3 714.0
29.51 710.0
29.72 681.0
29.93 638.0
30.14 708.0
30.35 615.0
30.56 622.0
30.77 634.0
30.98 609.0
31.19 620.0
31.4 608.0
31.61 617.0
31.82 570.0
32.03 570.0
32.24 555.0
32.45 548.0
32.66 540.0
32.87 543.0
33.08 532.0
33.29 505.0
33.5 493.0
33.71 465.0
33.92 468.0
34.13 479.0
34.34 500.0
34.55 452.0
34.76 441.0
34.97 444.0
35.18 440.0
35.39 427.0
35.6 444.0
35.81 457.0
36.02 393.0
36.23 432.0
36.44 402.0
36.65 384.0
36.86 414.0
37.07 408.0
37.28 359.0
37.49 371.0
37.7 349.0
37.91 351.0
38.12 352.0
38.33 340.0
38.54 375.0
38.75 336.0
38.96 333.0
39.17 376.0
39.38 344.0
39.59 348.0
39.8 313.0
40.01 343.0
40.22 335.0
40.43 343.0
40.64 312.0
40.85 338.0
41.06 327.0
41.27 309.0
41.48 314.0
41.69 311.0
41.9 293.0
42.11 337.0
42.32 328.0
42.53 295.0
42.74 325.0
42.95 311.0
43.16 335.0
43.37 321.0
43.58 315.0
43.79 289.0
44.0 288.0
44.21 284.0
44.42 292.0
44.63 299.0
44.84 294.0
45.05 314.0
45.26 302.0
45.47 284.0
45.68 331.0
45.89 295.0
46.1 293.0
46.31 281.0
46.52 274.0
46.73 294.0
46.94 279.0
47.15 294.0
47.36 265.0
47.57 321.0
47.78 271.0
47.99 252.0
48.2 265.0
48.41 268.0
48.62 264.0
48.83 242.0
49.04 233.0
49.25 231.0
49.46 257.0
49.67 250.0
49.88 255.0
50.09 256.0
50.3 243.0
50.51 261.0
50.72 254.0
50.93 243.0
51.14 228.0
51.35 251.0
51.56 268.0
51.77 246.0
51.98 231.0
52.19 274.0
52.4 245.0
52.61 255.0
52.82 246.0
53.03 234.0
53.24 235.0
53.45 219.0
53.66 235.0
53.87 229.0
54.08 227.0
54.29 224.0
54.5 223.0
54.71 226.0
54.92 230.0
55.13 221.0
55.34 238.0
55.55 230.0
55.76 253.0
55.97 238.0
56.18 257.0
56.39 221.0
56.6 235.0
56.81 227.0
57.02 227.0
57.23 232.0
57.44 234.0
57.65 239.0
57.86 206.0
58.07 241.0
58.28 225.0
58.49 249.0
58.7 245.0
58.91 204.0
59.12 188.0
59.33 209.0
59.54 218.0
59.75 206.0
59.96 229.0
60.17 219.0
60.38 208.0
60.59 224.0
60.8 212.0
61.01 226.0
61.22 206.0
61.43 209.0
61.64 200.0
61.85 205.0
61.985 211.0