File: ISoD/xrd_data/HSC075_2.xy
2.00000 6.000
2.21000 3.000
2.42000 6.000
2.63000 5.000
2.84000 3.000
3.05000 4.000
3.26000 127.000
3.47000 410.000
3.68000 376.000
3.89000 351.000
4.10000 315.000
4.31000 306.000
4.52000 339.000
4.73000 306.000
4.94000 300.000
5.15000 326.000
5.36000 315.000
5.57000 354.000
5.78000 448.000
5.99000 746.000
6.20000 1324.000
6.41000 580.000
6.62000 341.000
6.83000 331.000
7.04000 325.000
7.25000 279.000
7.46000 316.000
7.67000 335.000
7.88000 323.000
8.09000 338.000
8.30000 391.000
8.51000 459.000
8.72000 515.000
8.93000 451.000
9.14000 363.000
9.35000 370.000
9.56000 408.000
9.77000 483.000
9.98000 734.000
10.19000 878.000
10.40000 1217.000
10.61000 906.000
10.82000 632.000
11.03000 1127.000
11.24000 427.000
11.45000 360.000
11.66000 354.000
11.87000 321.000
12.08000 376.000
12.29000 394.000
12.50000 428.000
12.71000 398.000
12.92000 367.000
13.13000 331.000
13.34000 354.000
13.55000 312.000
13.76000 350.000
13.97000 346.000
14.18000 355.000
14.39000 346.000
14.60000 336.000
14.81000 341.000
15.02000 436.000
15.23000 322.000
15.44000 334.000
15.65000 386.000
15.86000 367.000
16.07000 376.000
16.28000 348.000
16.49000 367.000
16.70000 347.000
16.91000 348.000
17.12000 382.000
17.33000 408.000
17.54000 561.000
17.75000 478.000
17.96000 505.000
18.17000 475.000
18.38000 538.000
18.59000 682.000
18.80000 904.000
19.01000 791.000
19.22000 825.000
19.43000 470.000
19.64000 382.000
19.85000 389.000
20.06000 415.000
20.27000 398.000
20.48000 370.000
20.69000 367.000
20.90000 397.000
21.11000 443.000
21.32000 370.000
21.53000 372.000
21.74000 353.000
21.95000 355.000
22.16000 373.000
22.37000 323.000
22.58000 353.000
22.79000 415.000
23.00000 411.000
23.21000 402.000
23.42000 388.000
23.63000 356.000
23.84000 418.000
24.05000 382.000
24.26000 397.000
24.47000 593.000
24.68000 528.000
24.89000 668.000
25.10000 965.000
25.31000 843.000
25.52000 1123.000
25.73000 968.000
25.94000 848.000
26.15000 822.000
26.36000 743.000
26.57000 1387.000
26.78000 706.000
26.99000 712.000
27.20000 727.000
27.41000 830.000
27.62000 2029.000
27.83000 1531.000
28.04000 2202.000
28.25000 1420.000
28.46000 854.000
28.67000 691.000
28.88000 553.000
29.09000 521.000
29.30000 489.000
29.51000 467.000
29.72000 459.000
29.93000 479.000
30.14000 485.000
30.35000 496.000
30.56000 451.000
30.77000 425.000
30.98000 429.000
31.19000 339.000
31.40000 337.000
31.61000 438.000
31.82000 322.000
32.03000 467.000
32.24000 313.000
32.45000 335.000
32.66000 417.000
32.87000 313.000
33.08000 338.000
33.29000 310.000
33.50000 325.000
33.71000 374.000
33.92000 319.000
34.13000 300.000
34.34000 315.000
34.55000 273.000
34.76000 266.000
34.97000 290.000
35.18000 283.000
35.39000 304.000
35.60000 293.000
35.81000 464.000
36.02000 318.000
36.23000 326.000
36.44000 330.000
36.65000 292.000
36.86000 270.000
37.07000 289.000
37.28000 286.000
37.49000 286.000
37.70000 273.000
37.91000 244.000
38.12000 252.000
38.33000 257.000
38.54000 266.000
38.75000 314.000
38.96000 279.000
39.17000 249.000
39.38000 304.000
39.59000 255.000
39.80000 202.000
40.01000 225.000
40.22000 213.000
40.43000 215.000
40.64000 210.000
40.85000 256.000
41.06000 224.000
41.27000 190.000
41.48000 207.000
41.69000 210.000
41.90000 191.000
42.11000 208.000
42.32000 238.000
42.53000 235.000
42.74000 199.000
42.95000 215.000
43.16000 238.000
43.37000 232.000
43.58000 191.000
43.79000 182.000
44.00000 197.000
44.21000 203.000
44.42000 197.000
44.63000 189.000
44.84000 200.000
45.05000 218.000
45.26000 219.000
45.47000 261.000
45.68000 223.000
45.89000 184.000
46.10000 186.000
46.31000 227.000
46.52000 178.000
46.73000 184.000
46.94000 203.000
47.15000 173.000
47.36000 198.000
47.57000 184.000
47.78000 223.000
47.99000 217.000
48.20000 186.000
48.41000 189.000
48.62000 189.000
48.83000 183.000
49.04000 216.000
49.25000 210.000
49.46000 182.000
49.67000 161.000
49.88000 174.000
50.09000 166.000
50.30000 167.000
50.51000 191.000
50.72000 178.000
50.93000 184.000
51.14000 161.000
51.35000 182.000
51.56000 163.000
51.77000 192.000
51.98000 191.000
52.19000 197.000
52.40000 201.000
52.61000 184.000
52.82000 192.000
53.03000 191.000
53.24000 165.000
53.45000 203.000
53.66000 197.000
53.87000 228.000
54.08000 212.000
54.29000 179.000
54.50000 169.000
54.71000 180.000
54.92000 183.000
55.13000 199.000
55.34000 205.000
55.55000 169.000
55.76000 221.000
55.97000 184.000
56.18000 192.000
56.39000 183.000
56.60000 176.000
56.81000 181.000
57.02000 178.000
57.23000 161.000
57.44000 174.000
57.65000 184.000
57.86000 184.000
58.07000 193.000
58.28000 156.000
58.49000 206.000
58.70000 177.000
58.91000 168.000
59.12000 153.000
59.33000 145.000
59.54000 154.000
59.75000 177.000
59.96000 160.000
60.17000 158.000
60.38000 164.000
60.59000 153.000
60.80000 151.000
61.01000 163.000
61.22000 151.000
61.43000 156.000
61.64000 120.000
61.85000 133.000
61.98500 148.000