File: ISoD/xrd_data/HSC032.xy
2.00000 1.000
2.21000 3.000
2.42000 3.000
2.63000 3.000
2.84000 9.000
3.05000 1128.000
3.26000 1514.000
3.47000 1255.000
3.68000 1187.000
3.89000 1109.000
4.10000 991.000
4.31000 879.000
4.52000 829.000
4.73000 802.000
4.94000 760.000
5.15000 712.000
5.36000 619.000
5.57000 659.000
5.78000 598.000
5.99000 585.000
6.20000 550.000
6.41000 553.000
6.62000 501.000
6.83000 480.000
7.04000 446.000
7.25000 479.000
7.46000 467.000
7.67000 457.000
7.88000 464.000
8.09000 443.000
8.30000 430.000
8.51000 431.000
8.72000 452.000
8.93000 413.000
9.14000 406.000
9.35000 422.000
9.56000 413.000
9.77000 444.000
9.98000 410.000
10.19000 420.000
10.40000 384.000
10.61000 401.000
10.82000 399.000
11.03000 404.000
11.24000 389.000
11.45000 415.000
11.66000 398.000
11.87000 389.000
12.08000 418.000
12.29000 363.000
12.50000 360.000
12.71000 396.000
12.92000 397.000
13.13000 393.000
13.34000 393.000
13.55000 377.000
13.76000 381.000
13.97000 397.000
14.18000 407.000
14.39000 350.000
14.60000 372.000
14.81000 376.000
15.02000 361.000
15.23000 373.000
15.44000 361.000
15.65000 404.000
15.86000 349.000
16.07000 384.000
16.28000 374.000
16.49000 370.000
16.70000 368.000
16.91000 377.000
17.12000 398.000
17.33000 387.000
17.54000 374.000
17.75000 375.000
17.96000 396.000
18.17000 369.000
18.38000 380.000
18.59000 386.000
18.80000 406.000
19.01000 402.000
19.22000 393.000
19.43000 409.000
19.64000 403.000
19.85000 390.000
20.06000 396.000
20.27000 401.000
20.48000 452.000
20.69000 440.000
20.90000 433.000
21.11000 416.000
21.32000 400.000
21.53000 440.000
21.74000 426.000
21.95000 454.000
22.16000 446.000
22.37000 439.000
22.58000 441.000
22.79000 446.000
23.00000 455.000
23.21000 447.000
23.42000 446.000
23.63000 436.000
23.84000 446.000
24.05000 460.000
24.26000 447.000
24.47000 441.000
24.68000 429.000
24.89000 449.000
25.10000 443.000
25.31000 472.000
25.52000 468.000
25.73000 419.000
25.94000 444.000
26.15000 467.000
26.36000 442.000
26.57000 439.000
26.78000 431.000
26.99000 419.000
27.20000 416.000
27.41000 410.000
27.62000 389.000
27.83000 383.000
28.04000 393.000
28.25000 358.000
28.46000 391.000
28.67000 381.000
28.88000 359.000
29.09000 371.000
29.30000 350.000
29.51000 353.000
29.72000 338.000
29.93000 336.000
30.14000 324.000
30.35000 343.000
30.56000 333.000
30.77000 331.000
30.98000 318.000
31.19000 306.000
31.40000 334.000
31.61000 309.000
31.82000 283.000
32.03000 274.000
32.24000 272.000
32.45000 272.000
32.66000 280.000
32.87000 265.000
33.08000 276.000
33.29000 276.000
33.50000 281.000
33.71000 256.000
33.92000 235.000
34.13000 235.000
34.34000 235.000
34.55000 256.000
34.76000 239.000
34.97000 239.000
35.18000 246.000
35.39000 233.000
35.60000 221.000
35.81000 214.000
36.02000 231.000
36.23000 202.000
36.44000 200.000
36.65000 204.000
36.86000 213.000
37.07000 210.000
37.28000 209.000
37.49000 192.000
37.70000 203.000
37.91000 212.000
38.12000 207.000
38.33000 190.000
38.54000 204.000
38.75000 207.000
38.96000 189.000
39.17000 220.000
39.38000 197.000
39.59000 200.000
39.80000 193.000
40.01000 209.000
40.22000 209.000
40.43000 195.000
40.64000 206.000
40.85000 199.000
41.06000 186.000
41.27000 188.000
41.48000 191.000
41.69000 193.000
41.90000 192.000
42.11000 206.000
42.32000 185.000
42.53000 213.000
42.74000 188.000
42.95000 192.000
43.16000 191.000
43.37000 190.000
43.58000 165.000
43.79000 203.000
44.00000 181.000
44.21000 190.000
44.42000 199.000
44.63000 185.000
44.84000 177.000
45.05000 172.000
45.26000 181.000
45.47000 159.000
45.68000 166.000
45.89000 178.000
46.10000 180.000
46.31000 158.000
46.52000 171.000
46.73000 176.000
46.94000 164.000
47.15000 155.000
47.36000 180.000
47.57000 140.000
47.78000 166.000
47.99000 165.000
48.20000 160.000
48.41000 152.000
48.62000 142.000
48.83000 174.000
49.04000 138.000
49.25000 152.000
49.46000 153.000
49.67000 127.000
49.88000 156.000
50.09000 151.000
50.30000 150.000
50.51000 135.000
50.72000 157.000
50.93000 146.000
51.14000 133.000
51.35000 140.000
51.56000 145.000
51.77000 147.000
51.98000 141.000
52.19000 121.000
52.40000 130.000
52.61000 136.000
52.82000 153.000
53.03000 124.000
53.24000 130.000
53.45000 120.000
53.66000 148.000
53.87000 146.000
54.08000 141.000
54.29000 134.000
54.50000 134.000
54.71000 119.000
54.92000 117.000
55.13000 133.000
55.34000 114.000
55.55000 123.000
55.76000 121.000
55.97000 113.000
56.18000 130.000
56.39000 119.000
56.60000 118.000
56.81000 116.000
57.02000 119.000
57.23000 134.000
57.44000 114.000
57.65000 131.000
57.86000 112.000
58.07000 130.000
58.28000 122.000
58.49000 103.000
58.70000 103.000
58.91000 118.000
59.12000 117.000
59.33000 106.000
59.54000 128.000
59.75000 110.000
59.96000 126.000
60.17000 119.000
60.38000 109.000
60.59000 105.000
60.80000 107.000
61.01000 110.000
61.22000 99.000
61.43000 128.000
61.64000 118.000
61.85000 99.000
61.98500 117.000