File: ISoD/xrd_data/HSC069.xy
2.00000 5.000
2.21000 4.000
2.42000 5.000
2.63000 4.000
2.84000 3.000
3.05000 7.000
3.26000 136.000
3.47000 388.000
3.68000 368.000
3.89000 370.000
4.10000 322.000
4.31000 339.000
4.52000 348.000
4.73000 381.000
4.94000 371.000
5.15000 367.000
5.36000 370.000
5.57000 388.000
5.78000 371.000
5.99000 388.000
6.20000 395.000
6.41000 385.000
6.62000 406.000
6.83000 411.000
7.04000 415.000
7.25000 403.000
7.46000 416.000
7.67000 444.000
7.88000 426.000
8.09000 422.000
8.30000 395.000
8.51000 438.000
8.72000 457.000
8.93000 418.000
9.14000 458.000
9.35000 414.000
9.56000 440.000
9.77000 449.000
9.98000 425.000
10.19000 466.000
10.40000 483.000
10.61000 449.000
10.82000 429.000
11.03000 438.000
11.24000 431.000
11.45000 453.000
11.66000 443.000
11.87000 457.000
12.08000 469.000
12.29000 435.000
12.50000 455.000
12.71000 420.000
12.92000 447.000
13.13000 435.000
13.34000 418.000
13.55000 420.000
13.76000 435.000
13.97000 425.000
14.18000 442.000
14.39000 459.000
14.60000 431.000
14.81000 468.000
15.02000 468.000
15.23000 443.000
15.44000 452.000
15.65000 447.000
15.86000 446.000
16.07000 444.000
16.28000 458.000
16.49000 430.000
16.70000 487.000
16.91000 467.000
17.12000 450.000
17.33000 466.000
17.54000 466.000
17.75000 466.000
17.96000 467.000
18.17000 489.000
18.38000 441.000
18.59000 470.000
18.80000 499.000
19.01000 491.000
19.22000 509.000
19.43000 479.000
19.64000 453.000
19.85000 479.000
20.06000 475.000
20.27000 480.000
20.48000 483.000
20.69000 484.000
20.90000 519.000
21.11000 495.000
21.32000 507.000
21.53000 511.000
21.74000 493.000
21.95000 502.000
22.16000 514.000
22.37000 515.000
22.58000 479.000
22.79000 515.000
23.00000 517.000
23.21000 516.000
23.42000 513.000
23.63000 539.000
23.84000 550.000
24.05000 555.000
24.26000 553.000
24.47000 551.000
24.68000 576.000
24.89000 600.000
25.10000 589.000
25.31000 561.000
25.52000 611.000
25.73000 625.000
25.94000 599.000
26.15000 651.000
26.36000 710.000
26.57000 726.000
26.78000 707.000
26.99000 758.000
27.20000 765.000
27.41000 751.000
27.62000 712.000
27.83000 656.000
28.04000 637.000
28.25000 599.000
28.46000 553.000
28.67000 510.000
28.88000 509.000
29.09000 499.000
29.30000 485.000
29.51000 476.000
29.72000 459.000
29.93000 429.000
30.14000 419.000
30.35000 405.000
30.56000 430.000
30.77000 406.000
30.98000 386.000
31.19000 407.000
31.40000 415.000
31.61000 369.000
31.82000 374.000
32.03000 376.000
32.24000 347.000
32.45000 350.000
32.66000 352.000
32.87000 317.000
33.08000 310.000
33.29000 302.000
33.50000 317.000
33.71000 314.000
33.92000 323.000
34.13000 318.000
34.34000 299.000
34.55000 299.000
34.76000 310.000
34.97000 278.000
35.18000 295.000
35.39000 286.000
35.60000 281.000
35.81000 280.000
36.02000 266.000
36.23000 271.000
36.44000 263.000
36.65000 255.000
36.86000 269.000
37.07000 234.000
37.28000 275.000
37.49000 232.000
37.70000 235.000
37.91000 231.000
38.12000 236.000
38.33000 217.000
38.54000 217.000
38.75000 236.000
38.96000 254.000
39.17000 217.000
39.38000 207.000
39.59000 227.000
39.80000 223.000
40.01000 238.000
40.22000 223.000
40.43000 213.000
40.64000 201.000
40.85000 220.000
41.06000 228.000
41.27000 209.000
41.48000 199.000
41.69000 208.000
41.90000 236.000
42.11000 221.000
42.32000 227.000
42.53000 218.000
42.74000 213.000
42.95000 213.000
43.16000 232.000
43.37000 210.000
43.58000 213.000
43.79000 187.000
44.00000 209.000
44.21000 199.000
44.42000 203.000
44.63000 191.000
44.84000 188.000
45.05000 203.000
45.26000 205.000
45.47000 205.000
45.68000 209.000
45.89000 215.000
46.10000 219.000
46.31000 193.000
46.52000 173.000
46.73000 209.000
46.94000 190.000
47.15000 213.000
47.36000 172.000
47.57000 186.000
47.78000 179.000
47.99000 174.000
48.20000 176.000
48.41000 191.000
48.62000 189.000
48.83000 181.000
49.04000 173.000
49.25000 158.000
49.46000 154.000
49.67000 169.000
49.88000 179.000
50.09000 160.000
50.30000 171.000
50.51000 165.000
50.72000 163.000
50.93000 171.000
51.14000 171.000
51.35000 166.000
51.56000 167.000
51.77000 147.000
51.98000 154.000
52.19000 166.000
52.40000 165.000
52.61000 163.000
52.82000 170.000
53.03000 161.000
53.24000 147.000
53.45000 158.000
53.66000 177.000
53.87000 147.000
54.08000 151.000
54.29000 160.000
54.50000 144.000
54.71000 153.000
54.92000 170.000
55.13000 156.000
55.34000 170.000
55.55000 170.000
55.76000 159.000
55.97000 164.000
56.18000 158.000
56.39000 158.000
56.60000 155.000
56.81000 172.000
57.02000 158.000
57.23000 155.000
57.44000 163.000
57.65000 158.000
57.86000 156.000
58.07000 159.000
58.28000 162.000
58.49000 170.000
58.70000 152.000
58.91000 148.000
59.12000 151.000
59.33000 138.000
59.54000 160.000
59.75000 148.000
59.96000 132.000
60.17000 151.000
60.38000 142.000
60.59000 165.000
60.80000 151.000
61.01000 131.000
61.22000 119.000
61.43000 134.000
61.64000 124.000
61.85000 138.000
61.98500 119.000