File: ISoD/xrd_data/HSC034_extraktion.xy
2.00000 2.000
2.21000 1.000
2.42000 1.000
2.63000 2.000
2.84000 13.000
3.05000 239.000
3.26000 221.000
3.47000 212.000
3.68000 206.000
3.89000 208.000
4.10000 245.000
4.31000 203.000
4.52000 223.000
4.73000 234.000
4.94000 199.000
5.15000 226.000
5.36000 238.000
5.57000 248.000
5.78000 257.000
5.99000 234.000
6.20000 266.000
6.41000 256.000
6.62000 266.000
6.83000 278.000
7.04000 261.000
7.25000 290.000
7.46000 297.000
7.67000 298.000
7.88000 284.000
8.09000 303.000
8.30000 319.000
8.51000 358.000
8.72000 332.000
8.93000 319.000
9.14000 318.000
9.35000 315.000
9.56000 318.000
9.77000 313.000
9.98000 333.000
10.19000 349.000
10.40000 349.000
10.61000 502.000
10.82000 450.000
11.03000 412.000
11.24000 444.000
11.45000 497.000
11.66000 450.000
11.87000 457.000
12.08000 832.000
12.29000 294.000
12.50000 294.000
12.71000 385.000
12.92000 321.000
13.13000 307.000
13.34000 288.000
13.55000 267.000
13.76000 274.000
13.97000 271.000
14.18000 233.000
14.39000 276.000
14.60000 276.000
14.81000 282.000
15.02000 247.000
15.23000 261.000
15.44000 246.000
15.65000 266.000
15.86000 249.000
16.07000 257.000
16.28000 279.000
16.49000 249.000
16.70000 267.000
16.91000 275.000
17.12000 248.000
17.33000 284.000
17.54000 260.000
17.75000 247.000
17.96000 263.000
18.17000 269.000
18.38000 265.000
18.59000 242.000
18.80000 268.000
19.01000 260.000
19.22000 271.000
19.43000 257.000
19.64000 251.000
19.85000 303.000
20.06000 262.000
20.27000 241.000
20.48000 264.000
20.69000 266.000
20.90000 256.000
21.11000 279.000
21.32000 270.000
21.53000 292.000
21.74000 270.000
21.95000 282.000
22.16000 285.000
22.37000 286.000
22.58000 312.000
22.79000 306.000
23.00000 298.000
23.21000 340.000
23.42000 301.000
23.63000 304.000
23.84000 296.000
24.05000 330.000
24.26000 320.000
24.47000 352.000
24.68000 352.000
24.89000 474.000
25.10000 473.000
25.31000 475.000
25.52000 591.000
25.73000 500.000
25.94000 461.000
26.15000 497.000
26.36000 500.000
26.57000 575.000
26.78000 590.000
26.99000 809.000
27.20000 1391.000
27.41000 607.000
27.62000 447.000
27.83000 373.000
28.04000 333.000
28.25000 306.000
28.46000 296.000
28.67000 262.000
28.88000 248.000
29.09000 258.000
29.30000 257.000
29.51000 241.000
29.72000 259.000
29.93000 251.000
30.14000 268.000
30.35000 319.000
30.56000 274.000
30.77000 227.000
30.98000 227.000
31.19000 218.000
31.40000 209.000
31.61000 213.000
31.82000 207.000
32.03000 211.000
32.24000 222.000
32.45000 184.000
32.66000 200.000
32.87000 194.000
33.08000 191.000
33.29000 173.000
33.50000 189.000
33.71000 177.000
33.92000 177.000
34.13000 177.000
34.34000 164.000
34.55000 189.000
34.76000 198.000
34.97000 171.000
35.18000 167.000
35.39000 168.000
35.60000 156.000
35.81000 147.000
36.02000 153.000
36.23000 134.000
36.44000 143.000
36.65000 156.000
36.86000 142.000
37.07000 161.000
37.28000 129.000
37.49000 141.000
37.70000 138.000
37.91000 134.000
38.12000 127.000
38.33000 146.000
38.54000 144.000
38.75000 144.000
38.96000 149.000
39.17000 122.000
39.38000 131.000
39.59000 170.000
39.80000 138.000
40.01000 141.000
40.22000 154.000
40.43000 142.000
40.64000 143.000
40.85000 139.000
41.06000 131.000
41.27000 155.000
41.48000 141.000
41.69000 137.000
41.90000 152.000
42.11000 134.000
42.32000 126.000
42.53000 132.000
42.74000 114.000
42.95000 148.000
43.16000 148.000
43.37000 140.000
43.58000 138.000
43.79000 107.000
44.00000 130.000
44.21000 117.000
44.42000 126.000
44.63000 127.000
44.84000 118.000
45.05000 122.000
45.26000 104.000
45.47000 126.000
45.68000 141.000
45.89000 125.000
46.10000 131.000
46.31000 127.000
46.52000 141.000
46.73000 126.000
46.94000 131.000
47.15000 121.000
47.36000 122.000
47.57000 111.000
47.78000 133.000
47.99000 119.000
48.20000 109.000
48.41000 129.000
48.62000 116.000
48.83000 109.000
49.04000 107.000
49.25000 113.000
49.46000 125.000
49.67000 107.000
49.88000 108.000
50.09000 94.000
50.30000 90.000
50.51000 106.000
50.72000 92.000
50.93000 100.000
51.14000 110.000
51.35000 113.000
51.56000 101.000
51.77000 102.000
51.98000 95.000
52.19000 109.000
52.40000 98.000
52.61000 99.000
52.82000 106.000
53.03000 97.000
53.24000 114.000
53.45000 101.000
53.66000 110.000
53.87000 128.000
54.08000 104.000
54.29000 112.000
54.50000 97.000
54.71000 119.000
54.92000 116.000
55.13000 94.000
55.34000 97.000
55.55000 93.000
55.76000 97.000
55.97000 118.000
56.18000 95.000
56.39000 103.000
56.60000 96.000
56.81000 103.000
57.02000 92.000
57.23000 98.000
57.44000 94.000
57.65000 100.000
57.86000 94.000
58.07000 106.000
58.28000 94.000
58.49000 74.000
58.70000 91.000
58.91000 83.000
59.12000 95.000
59.33000 88.000
59.54000 89.000
59.75000 98.000
59.96000 95.000
60.17000 86.000
60.38000 86.000
60.59000 82.000
60.80000 77.000
61.01000 91.000
61.22000 68.000
61.43000 86.000
61.64000 78.000
61.85000 83.000
61.98500 85.000