File: ISoD/xrd_data/HSC047.xy
2.00000 4.000
2.21000 6.000
2.42000 3.000
2.63000 4.000
2.84000 3.000
3.05000 5.000
3.26000 79.000
3.47000 291.000
3.68000 283.000
3.89000 286.000
4.10000 283.000
4.31000 303.000
4.52000 299.000
4.73000 294.000
4.94000 318.000
5.15000 328.000
5.36000 317.000
5.57000 311.000
5.78000 336.000
5.99000 336.000
6.20000 315.000
6.41000 344.000
6.62000 328.000
6.83000 323.000
7.04000 346.000
7.25000 350.000
7.46000 344.000
7.67000 360.000
7.88000 331.000
8.09000 345.000
8.30000 358.000
8.51000 332.000
8.72000 373.000
8.93000 345.000
9.14000 376.000
9.35000 336.000
9.56000 356.000
9.77000 373.000
9.98000 366.000
10.19000 389.000
10.40000 374.000
10.61000 418.000
10.82000 408.000
11.03000 385.000
11.24000 417.000
11.45000 425.000
11.66000 421.000
11.87000 424.000
12.08000 569.000
12.29000 1760.000
12.50000 977.000
12.71000 520.000
12.92000 473.000
13.13000 486.000
13.34000 567.000
13.55000 623.000
13.76000 1401.000
13.97000 492.000
14.18000 477.000
14.39000 482.000
14.60000 482.000
14.81000 433.000
15.02000 465.000
15.23000 446.000
15.44000 491.000
15.65000 477.000
15.86000 475.000
16.07000 498.000
16.28000 505.000
16.49000 570.000
16.70000 622.000
16.91000 558.000
17.12000 532.000
17.33000 514.000
17.54000 563.000
17.75000 532.000
17.96000 550.000
18.17000 563.000
18.38000 586.000
18.59000 579.000
18.80000 532.000
19.01000 568.000
19.22000 647.000
19.43000 653.000
19.64000 798.000
19.85000 621.000
20.06000 610.000
20.27000 576.000
20.48000 598.000
20.69000 605.000
20.90000 641.000
21.11000 648.000
21.32000 625.000
21.53000 659.000
21.74000 847.000
21.95000 1062.000
22.16000 824.000
22.37000 689.000
22.58000 615.000
22.79000 654.000
23.00000 665.000
23.21000 702.000
23.42000 670.000
23.63000 688.000
23.84000 742.000
24.05000 693.000
24.26000 710.000
24.47000 711.000
24.68000 892.000
24.89000 957.000
25.10000 1576.000
25.31000 1520.000
25.52000 949.000
25.73000 1221.000
25.94000 906.000
26.15000 972.000
26.36000 967.000
26.57000 943.000
26.78000 962.000
26.99000 1287.000
27.20000 1500.000
27.41000 1080.000
27.62000 1134.000
27.83000 1550.000
28.04000 839.000
28.25000 784.000
28.46000 737.000
28.67000 731.000
28.88000 701.000
29.09000 634.000
29.30000 691.000
29.51000 620.000
29.72000 605.000
29.93000 645.000
30.14000 733.000
30.35000 735.000
30.56000 638.000
30.77000 654.000
30.98000 600.000
31.19000 568.000
31.40000 492.000
31.61000 533.000
31.82000 528.000
32.03000 505.000
32.24000 492.000
32.45000 468.000
32.66000 473.000
32.87000 423.000
33.08000 449.000
33.29000 433.000
33.50000 422.000
33.71000 426.000
33.92000 446.000
34.13000 393.000
34.34000 402.000
34.55000 414.000
34.76000 405.000
34.97000 405.000
35.18000 424.000
35.39000 391.000
35.60000 361.000
35.81000 374.000
36.02000 393.000
36.23000 308.000
36.44000 318.000
36.65000 329.000
36.86000 318.000
37.07000 351.000
37.28000 294.000
37.49000 325.000
37.70000 316.000
37.91000 294.000
38.12000 305.000
38.33000 357.000
38.54000 318.000
38.75000 289.000
38.96000 310.000
39.17000 312.000
39.38000 339.000
39.59000 308.000
39.80000 283.000
40.01000 296.000
40.22000 324.000
40.43000 310.000
40.64000 314.000
40.85000 307.000
41.06000 303.000
41.27000 306.000
41.48000 316.000
41.69000 311.000
41.90000 337.000
42.11000 346.000
42.32000 300.000
42.53000 255.000
42.74000 315.000
42.95000 302.000
43.16000 294.000
43.37000 295.000
43.58000 282.000
43.79000 301.000
44.00000 275.000
44.21000 317.000
44.42000 290.000
44.63000 305.000
44.84000 293.000
45.05000 294.000
45.26000 291.000
45.47000 284.000
45.68000 259.000
45.89000 296.000
46.10000 268.000
46.31000 257.000
46.52000 246.000
46.73000 265.000
46.94000 289.000
47.15000 280.000
47.36000 301.000
47.57000 268.000
47.78000 241.000
47.99000 264.000
48.20000 275.000
48.41000 286.000
48.62000 271.000
48.83000 239.000
49.04000 278.000
49.25000 263.000
49.46000 256.000
49.67000 282.000
49.88000 245.000
50.09000 273.000
50.30000 249.000
50.51000 261.000
50.72000 257.000
50.93000 261.000
51.14000 229.000
51.35000 241.000
51.56000 260.000
51.77000 269.000
51.98000 264.000
52.19000 248.000
52.40000 241.000
52.61000 229.000
52.82000 265.000
53.03000 231.000
53.24000 271.000
53.45000 269.000
53.66000 252.000
53.87000 250.000
54.08000 266.000
54.29000 215.000
54.50000 216.000
54.71000 219.000
54.92000 251.000
55.13000 265.000
55.34000 238.000
55.55000 257.000
55.76000 231.000
55.97000 231.000
56.18000 243.000
56.39000 256.000
56.60000 258.000
56.81000 241.000
57.02000 243.000
57.23000 244.000
57.44000 252.000
57.65000 230.000
57.86000 234.000
58.07000 229.000
58.28000 221.000
58.49000 222.000
58.70000 205.000
58.91000 201.000
59.12000 216.000
59.33000 208.000
59.54000 193.000
59.75000 216.000
59.96000 224.000
60.17000 201.000
60.38000 201.000
60.59000 204.000
60.80000 209.000
61.01000 216.000
61.22000 200.000
61.43000 231.000
61.64000 206.000
61.85000 226.000
61.98500 186.000