File: ISoD/xrd_data/HSC010_R02.xyd
    2.000      565
    2.210      415
    2.420      333
    2.630      281
    2.840      254
    3.050      217
    3.260      221
    3.470      217
    3.680      209
    3.890      214
    4.100      200
    4.310      170
    4.520      192
    4.730      189
    4.940      180
    5.150      156
    5.360      181
    5.570      207
    5.780      180
    5.990      253
    6.200      285
    6.410      171
    6.620      185
    6.830      171
    7.040      192
    7.250      203
    7.460      158
    7.670      174
    7.880      183
    8.090      179
    8.300      184
    8.510      193
    8.720      175
    8.930      174
    9.140      174
    9.350      169
    9.560      166
    9.770      193
    9.980      185
   10.190      177
   10.400      183
   10.610      206
   10.820      192
   11.030      199
   11.240      199
   11.450      174
   11.660      182
   11.870      221
   12.080      326
   12.290     1251
   12.500      292
   12.710      267
   12.920      246
   13.130      256
   13.340      349
   13.550      244
   13.760      250
   13.970      233
   14.180      231
   14.390      230
   14.600      214
   14.810      213
   15.020      218
   15.230      217
   15.440      204
   15.650      212
   15.860      235
   16.070      207
   16.280      235
   16.490      260
   16.700      229
   16.910      264
   17.120      258
   17.330      229
   17.540      241
   17.750      237
   17.960      252
   18.170      256
   18.380      261
   18.590      249
   18.800      259
   19.010      247
   19.220      229
   19.430      291
   19.640      314
   19.850      249
   20.060      253
   20.270      255
   20.480      239
   20.690      265
   20.900      251
   21.110      252
   21.320      282
   21.530      273
   21.740      274
   21.950      289
   22.160      306
   22.370      272
   22.580      267
   22.790      272
   23.000      254
   23.210      303
   23.420      303
   23.630      267
   23.840      285
   24.050      291
   24.260      267
   24.470      286
   24.680      307
   24.890      303
   25.100      305
   25.310      316
   25.520      309
   25.730      445
   25.940      385
   26.150      424
   26.360      586
   26.570      494
   26.780      572
   26.990      588
   27.200      790
   27.410      711
   27.620      703
   27.830      818
   28.040      467
   28.250      404
   28.460      311
   28.670      324
   28.880      307
   29.090      276
   29.300      246
   29.510      247
   29.720      246
   29.930      255
   30.140      247
   30.350      254
   30.560      224
   30.770      242
   30.980      251
   31.190      240
   31.400      207
   31.610      216
   31.820      193
   32.030      171
   32.240      188
   32.450      160
   32.660      152
   32.870      161
   33.080      167
   33.290      177
   33.500      165
   33.710      185
   33.920      182
   34.130      169
   34.340      172
   34.550      168
   34.760      151
   34.970      138
   35.180      137
   35.390      149
   35.600      124
   35.810      129
   36.020      133
   36.230      123
   36.440      132
   36.650      119
   36.860      133
   37.070      137
   37.280      127
   37.490      135
   37.700      127
   37.910      113
   38.120      118
   38.330      113
   38.540      112
   38.750      118
   38.960      120
   39.170      129
   39.380      121
   39.590      154
   39.800      123
   40.010      119
   40.220      115
   40.430      121
   40.640      121
   40.850      128
   41.060      119
   41.270      134
   41.480      110
   41.690      122
   41.900      116
   42.110      125
   42.320      135
   42.530      122
   42.740      131
   42.950      107
   43.160      128
   43.370      109
   43.580      107
   43.790      113
   44.000      120
   44.210      131
   44.420      136
   44.630      125
   44.840      124
   45.050      107
   45.260      107
   45.470       93
   45.680      105
   45.890      113
   46.100       99
   46.310      126
   46.520      111
   46.730      121
   46.940      119
   47.150      100
   47.360      113
   47.570      107
   47.780       97
   47.990      100
   48.200      108
   48.410      116
   48.620       99
   48.830       91
   49.040      107
   49.250      111
   49.460       90
   49.670      116
   49.880      105
   50.090       98
   50.300       95
   50.510      120
   50.720       94
   50.930      109
   51.140      100
   51.350       95
   51.560       83
   51.770       91
   51.980      103
   52.190       97
   52.400       95
   52.610      111
   52.820      110
   53.030       97
   53.240       89
   53.450      107
   53.660       97
   53.870       81
   54.080       93
   54.290       96
   54.500       88
   54.710       89
   54.920       96
   55.130       89
   55.340      102
   55.550      102
   55.760      120
   55.970      107
   56.180      109
   56.390       83
   56.600       94
   56.810       92
   57.020      105
   57.230       87
   57.440       94
   57.650       93
   57.860       96
   58.070       81
   58.280      101
   58.490       91
   58.700       80
   58.910       74
   59.120       88
   59.330       94
   59.540       85
   59.750       78
   59.960      101
   60.170       77
   60.380       79
   60.590       86
   60.800       92
   61.010       85
   61.220       79
   61.430       76
   61.640       72
   61.850       89
   61.985       88