File: ISoD/xrd_data/HSC058.xyd
2.00000 6.000
2.21000 6.000
2.42000 5.000
2.63000 7.000
2.84000 8.000
3.05000 9.000
3.26000 37.000
3.47000 421.000
3.68000 429.000
3.89000 397.000
4.10000 418.000
4.31000 406.000
4.52000 403.000
4.73000 408.000
4.94000 366.000
5.15000 406.000
5.36000 396.000
5.57000 413.000
5.78000 439.000
5.99000 449.000
6.20000 422.000
6.41000 443.000
6.62000 449.000
6.83000 462.000
7.04000 441.000
7.25000 476.000
7.46000 427.000
7.67000 461.000
7.88000 418.000
8.09000 450.000
8.30000 484.000
8.51000 478.000
8.72000 441.000
8.93000 498.000
9.14000 459.000
9.35000 484.000
9.56000 487.000
9.77000 489.000
9.98000 510.000
10.19000 498.000
10.40000 500.000
10.61000 523.000
10.82000 517.000
11.03000 561.000
11.24000 518.000
11.45000 538.000
11.66000 567.000
11.87000 588.000
12.08000 571.000
12.29000 635.000
12.50000 691.000
12.71000 747.000
12.92000 759.000
13.13000 754.000
13.34000 787.000
13.55000 732.000
13.76000 697.000
13.97000 717.000
14.18000 765.000
14.39000 664.000
14.60000 706.000
14.81000 679.000
15.02000 704.000
15.23000 687.000
15.44000 691.000
15.65000 674.000
15.86000 632.000
16.07000 654.000
16.28000 660.000
16.49000 650.000
16.70000 681.000
16.91000 661.000
17.12000 677.000
17.33000 680.000
17.54000 653.000
17.75000 682.000
17.96000 688.000
18.17000 714.000
18.38000 656.000
18.59000 696.000
18.80000 670.000
19.01000 663.000
19.22000 668.000
19.43000 678.000
19.64000 695.000
19.85000 686.000
20.06000 639.000
20.27000 669.000
20.48000 667.000
20.69000 660.000
20.90000 667.000
21.11000 705.000
21.32000 712.000
21.53000 681.000
21.74000 703.000
21.95000 717.000
22.16000 681.000
22.37000 676.000
22.58000 656.000
22.79000 670.000
23.00000 667.000
23.21000 669.000
23.42000 669.000
23.63000 673.000
23.84000 675.000
24.05000 696.000
24.26000 694.000
24.47000 684.000
24.68000 695.000
24.89000 750.000
25.10000 792.000
25.31000 746.000
25.52000 773.000
25.73000 827.000
25.94000 918.000
26.15000 1046.000
26.36000 1174.000
26.57000 1470.000
26.78000 1621.000
26.99000 2038.000
27.20000 2290.000
27.41000 2604.000
27.62000 2563.000
27.83000 2093.000
28.04000 1595.000
28.25000 1285.000
28.46000 1020.000
28.67000 918.000
28.88000 784.000
29.09000 750.000
29.30000 677.000
29.51000 667.000
29.72000 636.000
29.93000 608.000
30.14000 599.000
30.35000 531.000
30.56000 537.000
30.77000 551.000
30.98000 496.000
31.19000 507.000
31.40000 509.000
31.61000 482.000
31.82000 484.000
32.03000 481.000
32.24000 491.000
32.45000 449.000
32.66000 430.000
32.87000 439.000
33.08000 436.000
33.29000 442.000
33.50000 417.000
33.71000 431.000
33.92000 407.000
34.13000 405.000
34.34000 388.000
34.55000 378.000
34.76000 386.000
34.97000 376.000
35.18000 377.000
35.39000 376.000
35.60000 369.000
35.81000 347.000
36.02000 357.000
36.23000 332.000
36.44000 332.000
36.65000 343.000
36.86000 338.000
37.07000 340.000
37.28000 318.000
37.49000 316.000
37.70000 310.000
37.91000 328.000
38.12000 304.000
38.33000 325.000
38.54000 301.000
38.75000 312.000
38.96000 304.000
39.17000 313.000
39.38000 329.000
39.59000 309.000
39.80000 329.000
40.01000 332.000
40.22000 319.000
40.43000 310.000
40.64000 292.000
40.85000 331.000
41.06000 319.000
41.27000 314.000
41.48000 305.000
41.69000 278.000
41.90000 332.000
42.11000 316.000
42.32000 328.000
42.53000 315.000
42.74000 309.000
42.95000 300.000
43.16000 337.000
43.37000 309.000
43.58000 323.000
43.79000 338.000
44.00000 302.000
44.21000 318.000
44.42000 322.000
44.63000 336.000
44.84000 366.000
45.05000 336.000
45.26000 329.000
45.47000 333.000
45.68000 339.000
45.89000 319.000
46.10000 328.000
46.31000 295.000
46.52000 311.000
46.73000 321.000
46.94000 299.000
47.15000 305.000
47.36000 286.000
47.57000 293.000
47.78000 298.000
47.99000 260.000
48.20000 259.000
48.41000 280.000
48.62000 288.000
48.83000 284.000
49.04000 271.000
49.25000 254.000
49.46000 239.000
49.67000 281.000
49.88000 249.000
50.09000 260.000
50.30000 264.000
50.51000 260.000
50.72000 286.000
50.93000 268.000
51.14000 252.000
51.35000 250.000
51.56000 227.000
51.77000 254.000
51.98000 250.000
52.19000 251.000
52.40000 263.000
52.61000 258.000
52.82000 245.000
53.03000 254.000
53.24000 243.000
53.45000 249.000
53.66000 236.000
53.87000 245.000
54.08000 232.000
54.29000 256.000
54.50000 227.000
54.71000 254.000
54.92000 251.000
55.13000 243.000
55.34000 248.000
55.55000 254.000
55.76000 249.000
55.97000 264.000
56.18000 266.000
56.39000 262.000
56.60000 268.000
56.81000 282.000
57.02000 282.000
57.23000 270.000
57.44000 245.000
57.65000 251.000
57.86000 245.000
58.07000 245.000
58.28000 228.000
58.49000 237.000
58.70000 210.000
58.91000 244.000
59.12000 201.000
59.33000 185.000
59.54000 214.000
59.75000 205.000
59.96000 207.000
60.17000 212.000
60.38000 186.000
60.59000 186.000
60.80000 181.000
61.01000 194.000
61.22000 183.000
61.43000 200.000
61.64000 179.000
61.85000 183.000
61.98500 179.000