File: ISoD/xrd_data/HSC094_gew_range_1.xy
2.00000 6.000
2.21000 4.000
2.42000 4.000
2.63000 4.000
2.84000 4.000
3.05000 19.000
3.26000 240.000
3.47000 208.000
3.68000 188.000
3.89000 173.000
4.10000 179.000
4.31000 179.000
4.52000 173.000
4.73000 173.000
4.94000 164.000
5.15000 168.000
5.36000 174.000
5.57000 169.000
5.78000 186.000
5.99000 158.000
6.20000 179.000
6.41000 159.000
6.62000 183.000
6.83000 205.000
7.04000 191.000
7.25000 182.000
7.46000 198.000
7.67000 217.000
7.88000 202.000
8.09000 204.000
8.30000 218.000
8.51000 247.000
8.72000 332.000
8.93000 1370.000
9.14000 355.000
9.35000 236.000
9.56000 219.000
9.77000 197.000
9.98000 246.000
10.19000 246.000
10.40000 576.000
10.61000 1090.000
10.82000 358.000
11.03000 202.000
11.24000 256.000
11.45000 472.000
11.66000 3965.000
11.87000 511.000
12.08000 271.000
12.29000 251.000
12.50000 222.000
12.71000 225.000
12.92000 767.000
13.13000 437.000
13.34000 1014.000
13.55000 230.000
13.76000 211.000
13.97000 280.000
14.18000 223.000
14.39000 205.000
14.60000 221.000
14.81000 368.000
15.02000 2710.000
15.23000 221.000
15.44000 277.000
15.65000 261.000
15.86000 248.000
16.07000 836.000
16.28000 264.000
16.49000 310.000
16.70000 1249.000
16.91000 232.000
17.12000 206.000
17.33000 213.000
17.54000 210.000
17.75000 248.000
17.96000 511.000
18.17000 751.000
18.38000 257.000
18.59000 242.000
18.80000 259.000
19.01000 213.000
19.22000 216.000
19.43000 270.000
19.64000 2111.000
19.85000 224.000
20.06000 231.000
20.27000 524.000
20.48000 262.000
20.69000 424.000
20.90000 305.000
21.11000 893.000
21.32000 571.000
21.53000 2937.000
21.74000 846.000
21.95000 404.000
22.16000 313.000
22.37000 425.000
22.58000 364.000
22.79000 411.000
23.00000 258.000
23.21000 267.000
23.42000 459.000
23.63000 278.000
23.84000 243.000
24.05000 251.000
24.26000 221.000
24.47000 249.000
24.68000 240.000
24.89000 258.000
25.10000 239.000
25.31000 231.000
25.52000 218.000
25.73000 192.000
25.94000 241.000
26.15000 459.000
26.36000 259.000
26.57000 264.000
26.78000 722.000
26.99000 425.000
27.20000 586.000
27.41000 354.000
27.62000 1502.000
27.83000 432.000
28.04000 392.000
28.25000 258.000
28.46000 349.000
28.67000 510.000
28.88000 378.000
29.09000 375.000
29.30000 234.000
29.51000 250.000
29.72000 229.000
29.93000 251.000
30.14000 445.000
30.35000 2108.000
30.56000 307.000
30.77000 234.000
30.98000 255.000
31.19000 309.000
31.40000 313.000
31.61000 631.000
31.82000 2558.000
32.03000 509.000
32.24000 300.000
32.45000 765.000
32.66000 499.000
32.87000 271.000
33.08000 213.000
33.29000 278.000
33.50000 368.000
33.71000 308.000
33.92000 194.000
34.13000 182.000
34.34000 188.000
34.55000 198.000
34.76000 193.000
34.97000 234.000
35.18000 285.000
35.39000 332.000
35.60000 702.000
35.81000 225.000
36.02000 231.000
36.23000 836.000
36.44000 278.000
36.65000 344.000
36.86000 295.000
37.07000 199.000
37.28000 282.000
37.49000 1046.000
37.70000 518.000
37.91000 221.000
38.12000 175.000
38.33000 204.000
38.54000 250.000
38.75000 161.000
38.96000 149.000
39.17000 168.000
39.38000 208.000
39.59000 183.000
39.80000 403.000
40.01000 278.000
40.22000 169.000
40.43000 227.000
40.64000 180.000
40.85000 521.000
41.06000 264.000
41.27000 324.000
41.48000 205.000
41.69000 258.000
41.90000 509.000
42.11000 316.000
42.32000 275.000
42.53000 255.000
42.74000 648.000
42.95000 390.000
43.16000 316.000
43.37000 513.000
43.58000 378.000
43.79000 245.000
44.00000 382.000
44.21000 271.000
44.42000 182.000
44.63000 434.000
44.84000 335.000
45.05000 205.000
45.26000 269.000
45.47000 843.000
45.68000 375.000
45.89000 286.000
46.10000 251.000
46.31000 223.000
46.52000 271.000
46.73000 535.000
46.94000 469.000
47.15000 244.000
47.36000 220.000
47.57000 667.000
47.78000 228.000
47.99000 536.000
48.20000 382.000
48.41000 376.000
48.62000 353.000
48.83000 329.000
49.04000 242.000
49.25000 244.000
49.46000 166.000
49.67000 171.000
49.88000 425.000
50.09000 289.000
50.30000 205.000
50.51000 222.000
50.72000 322.000
50.93000 499.000
51.14000 192.000
51.35000 167.000
51.56000 197.000
51.77000 237.000
51.98000 232.000
52.19000 160.000
52.40000 151.000
52.61000 201.000
52.82000 434.000
53.03000 229.000
53.24000 210.000
53.45000 185.000
53.66000 164.000
53.87000 150.000
54.08000 164.000
54.29000 169.000
54.50000 245.000
54.71000 346.000
54.92000 359.000
55.13000 324.000
55.34000 501.000
55.55000 326.000
55.76000 184.000
55.97000 216.000
56.18000 298.000
56.39000 252.000
56.60000 318.000
56.81000 309.000
57.02000 253.000
57.23000 241.000
57.44000 210.000
57.65000 216.000
57.86000 173.000
58.07000 305.000
58.28000 273.000
58.49000 238.000
58.70000 197.000
58.91000 221.000
59.12000 160.000
59.33000 164.000
59.54000 278.000
59.75000 219.000
59.96000 265.000
60.17000 423.000
60.38000 230.000
60.59000 177.000
60.80000 160.000
61.01000 250.000
61.22000 238.000
61.43000 301.000
61.64000 171.000
61.85000 159.000
61.98500 237.000