File: ISoD/xrd_data/HSC005IIIcombined_range_1.xy
2.00000 738.000
2.21000 561.000
2.42000 530.000
2.63000 459.000
2.84000 408.000
3.05000 379.000
3.26000 383.000
3.47000 360.000
3.68000 381.000
3.89000 351.000
4.10000 356.000
4.31000 343.000
4.52000 338.000
4.73000 367.000
4.94000 337.000
5.15000 380.000
5.36000 381.000
5.57000 349.000
5.78000 368.000
5.99000 366.000
6.20000 342.000
6.41000 352.000
6.62000 338.000
6.83000 353.000
7.04000 338.000
7.25000 334.000
7.46000 353.000
7.67000 371.000
7.88000 347.000
8.09000 354.000
8.30000 327.000
8.51000 335.000
8.72000 354.000
8.93000 326.000
9.14000 363.000
9.35000 345.000
9.56000 318.000
9.77000 342.000
9.98000 343.000
10.19000 364.000
10.40000 330.000
10.61000 334.000
10.82000 335.000
11.03000 353.000
11.24000 360.000
11.45000 333.000
11.66000 350.000
11.87000 712.000
12.08000 1915.000
12.29000 464.000
12.50000 431.000
12.71000 394.000
12.92000 403.000
13.13000 368.000
13.34000 367.000
13.55000 346.000
13.76000 389.000
13.97000 360.000
14.18000 354.000
14.39000 363.000
14.60000 398.000
14.81000 366.000
15.02000 351.000
15.23000 414.000
15.44000 379.000
15.65000 378.000
15.86000 386.000
16.07000 385.000
16.28000 361.000
16.49000 397.000
16.70000 412.000
16.91000 415.000
17.12000 416.000
17.33000 446.000
17.54000 442.000
17.75000 495.000
17.96000 696.000
18.17000 568.000
18.38000 501.000
18.59000 482.000
18.80000 443.000
19.01000 463.000
19.22000 458.000
19.43000 448.000
19.64000 444.000
19.85000 458.000
20.06000 458.000
20.27000 469.000
20.48000 505.000
20.69000 614.000
20.90000 951.000
21.11000 602.000
21.32000 528.000
21.53000 531.000
21.74000 520.000
21.95000 496.000
22.16000 510.000
22.37000 540.000
22.58000 548.000
22.79000 545.000
23.00000 539.000
23.21000 578.000
23.42000 553.000
23.63000 531.000
23.84000 567.000
24.05000 589.000
24.26000 795.000
24.47000 636.000
24.68000 790.000
24.89000 1002.000
25.10000 827.000
25.31000 657.000
25.52000 658.000
25.73000 619.000
25.94000 628.000
26.15000 662.000
26.36000 671.000
26.57000 794.000
26.78000 1041.000
26.99000 1767.000
27.20000 1408.000
27.41000 1292.000
27.62000 1769.000
27.83000 1594.000
28.04000 1022.000
28.25000 785.000
28.46000 673.000
28.67000 633.000
28.88000 630.000
29.09000 611.000
29.30000 653.000
29.51000 772.000
29.72000 786.000
29.93000 650.000
30.14000 525.000
30.35000 452.000
30.56000 444.000
30.77000 427.000
30.98000 440.000
31.19000 410.000
31.40000 387.000
31.61000 398.000
31.82000 405.000
32.03000 683.000
32.24000 692.000
32.45000 446.000
32.66000 384.000
32.87000 371.000
33.08000 395.000
33.29000 355.000
33.50000 362.000
33.71000 347.000
33.92000 342.000
34.13000 354.000
34.34000 362.000
34.55000 348.000
34.76000 390.000
34.97000 407.000
35.18000 384.000
35.39000 314.000
35.60000 284.000
35.81000 320.000
36.02000 293.000
36.23000 267.000
36.44000 289.000
36.65000 298.000
36.86000 263.000
37.07000 249.000
37.28000 261.000
37.49000 256.000
37.70000 252.000
37.91000 243.000
38.12000 265.000
38.33000 244.000
38.54000 242.000
38.75000 237.000
38.96000 267.000
39.17000 250.000
39.38000 272.000
39.59000 291.000
39.80000 317.000
40.01000 302.000
40.22000 272.000
40.43000 253.000
40.64000 224.000
40.85000 261.000
41.06000 248.000
41.27000 274.000
41.48000 231.000
41.69000 254.000
41.90000 252.000
42.11000 269.000
42.32000 351.000
42.53000 322.000
42.74000 349.000
42.95000 288.000
43.16000 272.000
43.37000 270.000
43.58000 265.000
43.79000 269.000
44.00000 283.000
44.21000 310.000
44.42000 412.000
44.63000 435.000
44.84000 489.000
45.05000 404.000
45.26000 297.000
45.47000 251.000
45.68000 237.000
45.89000 237.000
46.10000 237.000
46.31000 247.000
46.52000 249.000
46.73000 267.000
46.94000 233.000
47.15000 229.000
47.36000 210.000
47.57000 236.000
47.78000 206.000
47.99000 216.000
48.20000 196.000
48.41000 205.000
48.62000 204.000
48.83000 217.000
49.04000 216.000
49.25000 220.000
49.46000 212.000
49.67000 208.000
49.88000 201.000
50.09000 193.000
50.30000 190.000
50.51000 214.000
50.72000 200.000
50.93000 235.000
51.14000 212.000
51.35000 230.000
51.56000 192.000
51.77000 206.000
51.98000 200.000
52.19000 200.000
52.40000 188.000
52.61000 212.000
52.82000 201.000
53.03000 199.000
53.24000 207.000
53.45000 193.000
53.66000 204.000
53.87000 194.000
54.08000 203.000
54.29000 216.000
54.50000 214.000
54.71000 191.000
54.92000 207.000
55.13000 189.000
55.34000 195.000
55.55000 216.000
55.76000 219.000
55.97000 275.000
56.18000 278.000
56.39000 260.000
56.60000 249.000
56.81000 227.000
57.02000 239.000
57.23000 248.000
57.44000 228.000
57.65000 206.000
57.86000 184.000
58.07000 180.000
58.28000 164.000
58.49000 196.000
58.70000 187.000
58.91000 189.000
59.12000 181.000
59.33000 207.000
59.54000 177.000
59.75000 180.000
59.96000 193.000
60.17000 196.000
60.38000 188.000
60.59000 183.000
60.80000 178.000
61.01000 185.000
61.22000 158.000
61.43000 178.000
61.64000 184.000
61.85000 188.000
61.98500 175.000