File: ISoD/xrd_data/HSC064_Rueck.xy
2.00000 4.000
2.21000 4.000
2.42000 6.000
2.63000 2.000
2.84000 3.000
3.05000 4.000
3.26000 546.000
3.47000 652.000
3.68000 568.000
3.89000 491.000
4.10000 412.000
4.31000 385.000
4.52000 321.000
4.73000 285.000
4.94000 255.000
5.15000 248.000
5.36000 217.000
5.57000 237.000
5.78000 221.000
5.99000 218.000
6.20000 204.000
6.41000 202.000
6.62000 197.000
6.83000 203.000
7.04000 212.000
7.25000 216.000
7.46000 249.000
7.67000 325.000
7.88000 518.000
8.09000 693.000
8.30000 548.000
8.51000 503.000
8.72000 468.000
8.93000 443.000
9.14000 404.000
9.35000 375.000
9.56000 373.000
9.77000 307.000
9.98000 288.000
10.19000 228.000
10.40000 214.000
10.61000 212.000
10.82000 192.000
11.03000 177.000
11.24000 189.000
11.45000 182.000
11.66000 198.000
11.87000 166.000
12.08000 165.000
12.29000 166.000
12.50000 172.000
12.71000 163.000
12.92000 187.000
13.13000 177.000
13.34000 183.000
13.55000 194.000
13.76000 192.000
13.97000 185.000
14.18000 190.000
14.39000 166.000
14.60000 192.000
14.81000 178.000
15.02000 183.000
15.23000 197.000
15.44000 187.000
15.65000 184.000
15.86000 224.000
16.07000 194.000
16.28000 216.000
16.49000 216.000
16.70000 213.000
16.91000 206.000
17.12000 198.000
17.33000 185.000
17.54000 200.000
17.75000 203.000
17.96000 213.000
18.17000 179.000
18.38000 181.000
18.59000 198.000
18.80000 190.000
19.01000 200.000
19.22000 166.000
19.43000 212.000
19.64000 186.000
19.85000 175.000
20.06000 188.000
20.27000 184.000
20.48000 194.000
20.69000 212.000
20.90000 206.000
21.11000 227.000
21.32000 238.000
21.53000 285.000
21.74000 258.000
21.95000 249.000
22.16000 239.000
22.37000 241.000
22.58000 267.000
22.79000 243.000
23.00000 226.000
23.21000 256.000
23.42000 301.000
23.63000 295.000
23.84000 269.000
24.05000 274.000
24.26000 305.000
24.47000 305.000
24.68000 322.000
24.89000 325.000
25.10000 302.000
25.31000 317.000
25.52000 362.000
25.73000 327.000
25.94000 302.000
26.15000 346.000
26.36000 353.000
26.57000 328.000
26.78000 342.000
26.99000 340.000
27.20000 381.000
27.41000 361.000
27.62000 421.000
27.83000 537.000
28.04000 763.000
28.25000 1386.000
28.46000 2267.000
28.67000 1471.000
28.88000 744.000
29.09000 563.000
29.30000 450.000
29.51000 416.000
29.72000 358.000
29.93000 340.000
30.14000 323.000
30.35000 302.000
30.56000 305.000
30.77000 276.000
30.98000 281.000
31.19000 268.000
31.40000 265.000
31.61000 265.000
31.82000 262.000
32.03000 267.000
32.24000 255.000
32.45000 301.000
32.66000 266.000
32.87000 228.000
33.08000 204.000
33.29000 182.000
33.50000 194.000
33.71000 198.000
33.92000 232.000
34.13000 202.000
34.34000 195.000
34.55000 183.000
34.76000 182.000
34.97000 215.000
35.18000 224.000
35.39000 290.000
35.60000 308.000
35.81000 276.000
36.02000 270.000
36.23000 264.000
36.44000 273.000
36.65000 260.000
36.86000 251.000
37.07000 300.000
37.28000 275.000
37.49000 260.000
37.70000 236.000
37.91000 227.000
38.12000 238.000
38.33000 215.000
38.54000 222.000
38.75000 207.000
38.96000 221.000
39.17000 194.000
39.38000 223.000
39.59000 200.000
39.80000 196.000
40.01000 186.000
40.22000 195.000
40.43000 188.000
40.64000 166.000
40.85000 162.000
41.06000 160.000
41.27000 154.000
41.48000 154.000
41.69000 168.000
41.90000 158.000
42.11000 147.000
42.32000 177.000
42.53000 179.000
42.74000 177.000
42.95000 177.000
43.16000 180.000
43.37000 222.000
43.58000 219.000
43.79000 216.000
44.00000 224.000
44.21000 213.000
44.42000 204.000
44.63000 202.000
44.84000 190.000
45.05000 203.000
45.26000 185.000
45.47000 190.000
45.68000 181.000
45.89000 187.000
46.10000 172.000
46.31000 163.000
46.52000 139.000
46.73000 140.000
46.94000 135.000
47.15000 153.000
47.36000 138.000
47.57000 130.000
47.78000 130.000
47.99000 125.000
48.20000 136.000
48.41000 137.000
48.62000 112.000
48.83000 112.000
49.04000 134.000
49.25000 132.000
49.46000 132.000
49.67000 121.000
49.88000 129.000
50.09000 133.000
50.30000 133.000
50.51000 142.000
50.72000 133.000
50.93000 131.000
51.14000 127.000
51.35000 130.000
51.56000 126.000
51.77000 125.000
51.98000 145.000
52.19000 125.000
52.40000 139.000
52.61000 107.000
52.82000 127.000
53.03000 141.000
53.24000 133.000
53.45000 118.000
53.66000 136.000
53.87000 120.000
54.08000 127.000
54.29000 128.000
54.50000 115.000
54.71000 131.000
54.92000 117.000
55.13000 110.000
55.34000 127.000
55.55000 106.000
55.76000 111.000
55.97000 101.000
56.18000 111.000
56.39000 113.000
56.60000 111.000
56.81000 123.000
57.02000 114.000
57.23000 109.000
57.44000 99.000
57.65000 115.000
57.86000 121.000
58.07000 124.000
58.28000 137.000
58.49000 136.000
58.70000 147.000
58.91000 146.000
59.12000 153.000
59.33000 129.000
59.54000 127.000
59.75000 117.000
59.96000 121.000
60.17000 114.000
60.38000 124.000
60.59000 118.000
60.80000 106.000
61.01000 98.000
61.22000 107.000
61.43000 101.000
61.64000 102.000
61.85000 90.000
61.98500 99.000