File: ISoD/xrd_data/HSC076.xy
2.00000 4.000
2.21000 3.000
2.42000 3.000
2.63000 6.000
2.84000 4.000
3.05000 3.000
3.26000 95.000
3.47000 278.000
3.68000 290.000
3.89000 281.000
4.10000 270.000
4.31000 271.000
4.52000 246.000
4.73000 285.000
4.94000 288.000
5.15000 321.000
5.36000 296.000
5.57000 360.000
5.78000 368.000
5.99000 534.000
6.20000 1108.000
6.41000 419.000
6.62000 359.000
6.83000 344.000
7.04000 346.000
7.25000 343.000
7.46000 360.000
7.67000 370.000
7.88000 337.000
8.09000 394.000
8.30000 391.000
8.51000 431.000
8.72000 459.000
8.93000 500.000
9.14000 383.000
9.35000 414.000
9.56000 397.000
9.77000 421.000
9.98000 506.000
10.19000 662.000
10.40000 1605.000
10.61000 1068.000
10.82000 941.000
11.03000 1388.000
11.24000 564.000
11.45000 475.000
11.66000 434.000
11.87000 413.000
12.08000 414.000
12.29000 534.000
12.50000 607.000
12.71000 419.000
12.92000 432.000
13.13000 382.000
13.34000 408.000
13.55000 430.000
13.76000 410.000
13.97000 430.000
14.18000 431.000
14.39000 416.000
14.60000 422.000
14.81000 438.000
15.02000 635.000
15.23000 438.000
15.44000 438.000
15.65000 410.000
15.86000 406.000
16.07000 427.000
16.28000 462.000
16.49000 456.000
16.70000 450.000
16.91000 474.000
17.12000 466.000
17.33000 504.000
17.54000 537.000
17.75000 513.000
17.96000 637.000
18.17000 505.000
18.38000 471.000
18.59000 597.000
18.80000 766.000
19.01000 622.000
19.22000 1163.000
19.43000 499.000
19.64000 467.000
19.85000 471.000
20.06000 456.000
20.27000 485.000
20.48000 471.000
20.69000 477.000
20.90000 542.000
21.11000 543.000
21.32000 539.000
21.53000 483.000
21.74000 452.000
21.95000 421.000
22.16000 486.000
22.37000 496.000
22.58000 452.000
22.79000 523.000
23.00000 508.000
23.21000 497.000
23.42000 514.000
23.63000 509.000
23.84000 478.000
24.05000 529.000
24.26000 560.000
24.47000 958.000
24.68000 602.000
24.89000 617.000
25.10000 907.000
25.31000 780.000
25.52000 1159.000
25.73000 996.000
25.94000 775.000
26.15000 889.000
26.36000 733.000
26.57000 1748.000
26.78000 757.000
26.99000 672.000
27.20000 726.000
27.41000 808.000
27.62000 1765.000
27.83000 1206.000
28.04000 1991.000
28.25000 1630.000
28.46000 914.000
28.67000 669.000
28.88000 560.000
29.09000 559.000
29.30000 550.000
29.51000 582.000
29.72000 520.000
29.93000 511.000
30.14000 540.000
30.35000 786.000
30.56000 669.000
30.77000 469.000
30.98000 516.000
31.19000 388.000
31.40000 435.000
31.61000 557.000
31.82000 408.000
32.03000 499.000
32.24000 396.000
32.45000 376.000
32.66000 481.000
32.87000 360.000
33.08000 465.000
33.29000 361.000
33.50000 374.000
33.71000 529.000
33.92000 451.000
34.13000 402.000
34.34000 344.000
34.55000 355.000
34.76000 325.000
34.97000 328.000
35.18000 344.000
35.39000 367.000
35.60000 331.000
35.81000 581.000
36.02000 315.000
36.23000 272.000
36.44000 311.000
36.65000 290.000
36.86000 279.000
37.07000 276.000
37.28000 287.000
37.49000 326.000
37.70000 261.000
37.91000 255.000
38.12000 267.000
38.33000 254.000
38.54000 319.000
38.75000 408.000
38.96000 302.000
39.17000 299.000
39.38000 324.000
39.59000 297.000
39.80000 231.000
40.01000 269.000
40.22000 254.000
40.43000 523.000
40.64000 350.000
40.85000 403.000
41.06000 252.000
41.27000 233.000
41.48000 224.000
41.69000 234.000
41.90000 240.000
42.11000 248.000
42.32000 307.000
42.53000 275.000
42.74000 251.000
42.95000 268.000
43.16000 271.000
43.37000 311.000
43.58000 246.000
43.79000 216.000
44.00000 235.000
44.21000 279.000
44.42000 252.000
44.63000 255.000
44.84000 267.000
45.05000 263.000
45.26000 243.000
45.47000 302.000
45.68000 241.000
45.89000 226.000
46.10000 232.000
46.31000 232.000
46.52000 205.000
46.73000 208.000
46.94000 229.000
47.15000 244.000
47.36000 207.000
47.57000 206.000
47.78000 232.000
47.99000 237.000
48.20000 208.000
48.41000 238.000
48.62000 199.000
48.83000 239.000
49.04000 262.000
49.25000 242.000
49.46000 217.000
49.67000 192.000
49.88000 261.000
50.09000 292.000
50.30000 271.000
50.51000 247.000
50.72000 225.000
50.93000 208.000
51.14000 219.000
51.35000 182.000
51.56000 208.000
51.77000 198.000
51.98000 223.000
52.19000 228.000
52.40000 223.000
52.61000 200.000
52.82000 235.000
53.03000 278.000
53.24000 226.000
53.45000 245.000
53.66000 205.000
53.87000 256.000
54.08000 263.000
54.29000 228.000
54.50000 191.000
54.71000 209.000
54.92000 198.000
55.13000 204.000
55.34000 216.000
55.55000 199.000
55.76000 231.000
55.97000 204.000
56.18000 200.000
56.39000 194.000
56.60000 186.000
56.81000 197.000
57.02000 210.000
57.23000 184.000
57.44000 186.000
57.65000 181.000
57.86000 206.000
58.07000 231.000
58.28000 212.000
58.49000 244.000
58.70000 223.000
58.91000 178.000
59.12000 178.000
59.33000 177.000
59.54000 190.000
59.75000 165.000
59.96000 168.000
60.17000 195.000
60.38000 158.000
60.59000 159.000
60.80000 169.000
61.01000 165.000
61.22000 164.000
61.43000 168.000
61.64000 156.000
61.85000 164.000
61.98500 176.000