File: ISoD/xrd_data/HSC005III_range_2.xy
2.00000 360.000
2.21000 269.000
2.42000 265.000
2.63000 219.000
2.84000 233.000
3.05000 181.000
3.26000 187.000
3.47000 175.000
3.68000 188.000
3.89000 175.000
4.10000 163.000
4.31000 169.000
4.52000 165.000
4.73000 187.000
4.94000 169.000
5.15000 191.000
5.36000 192.000
5.57000 168.000
5.78000 193.000
5.99000 189.000
6.20000 164.000
6.41000 177.000
6.62000 167.000
6.83000 175.000
7.04000 156.000
7.25000 173.000
7.46000 160.000
7.67000 184.000
7.88000 163.000
8.09000 172.000
8.30000 166.000
8.51000 166.000
8.72000 169.000
8.93000 167.000
9.14000 179.000
9.35000 187.000
9.56000 159.000
9.77000 174.000
9.98000 165.000
10.19000 175.000
10.40000 154.000
10.61000 172.000
10.82000 167.000
11.03000 173.000
11.24000 164.000
11.45000 173.000
11.66000 188.000
11.87000 345.000
12.08000 947.000
12.29000 232.000
12.50000 223.000
12.71000 190.000
12.92000 196.000
13.13000 187.000
13.34000 179.000
13.55000 164.000
13.76000 206.000
13.97000 164.000
14.18000 160.000
14.39000 183.000
14.60000 196.000
14.81000 181.000
15.02000 179.000
15.23000 208.000
15.44000 188.000
15.65000 186.000
15.86000 207.000
16.07000 189.000
16.28000 180.000
16.49000 203.000
16.70000 199.000
16.91000 195.000
17.12000 200.000
17.33000 220.000
17.54000 214.000
17.75000 247.000
17.96000 343.000
18.17000 280.000
18.38000 241.000
18.59000 225.000
18.80000 213.000
19.01000 215.000
19.22000 240.000
19.43000 227.000
19.64000 219.000
19.85000 216.000
20.06000 216.000
20.27000 223.000
20.48000 259.000
20.69000 310.000
20.90000 473.000
21.11000 290.000
21.32000 250.000
21.53000 257.000
21.74000 253.000
21.95000 252.000
22.16000 247.000
22.37000 270.000
22.58000 270.000
22.79000 263.000
23.00000 282.000
23.21000 279.000
23.42000 266.000
23.63000 257.000
23.84000 300.000
24.05000 308.000
24.26000 395.000
24.47000 320.000
24.68000 385.000
24.89000 484.000
25.10000 410.000
25.31000 303.000
25.52000 315.000
25.73000 300.000
25.94000 298.000
26.15000 332.000
26.36000 346.000
26.57000 392.000
26.78000 521.000
26.99000 897.000
27.20000 696.000
27.41000 665.000
27.62000 879.000
27.83000 821.000
28.04000 486.000
28.25000 379.000
28.46000 320.000
28.67000 299.000
28.88000 296.000
29.09000 300.000
29.30000 318.000
29.51000 367.000
29.72000 388.000
29.93000 322.000
30.14000 262.000
30.35000 228.000
30.56000 217.000
30.77000 207.000
30.98000 217.000
31.19000 198.000
31.40000 188.000
31.61000 214.000
31.82000 192.000
32.03000 349.000
32.24000 331.000
32.45000 225.000
32.66000 192.000
32.87000 189.000
33.08000 203.000
33.29000 184.000
33.50000 168.000
33.71000 175.000
33.92000 167.000
34.13000 158.000
34.34000 157.000
34.55000 182.000
34.76000 193.000
34.97000 199.000
35.18000 203.000
35.39000 160.000
35.60000 146.000
35.81000 164.000
36.02000 139.000
36.23000 141.000
36.44000 149.000
36.65000 157.000
36.86000 121.000
37.07000 122.000
37.28000 124.000
37.49000 125.000
37.70000 125.000
37.91000 119.000
38.12000 134.000
38.33000 115.000
38.54000 114.000
38.75000 120.000
38.96000 138.000
39.17000 113.000
39.38000 126.000
39.59000 152.000
39.80000 167.000
40.01000 147.000
40.22000 134.000
40.43000 124.000
40.64000 117.000
40.85000 130.000
41.06000 124.000
41.27000 147.000
41.48000 122.000
41.69000 127.000
41.90000 117.000
42.11000 123.000
42.32000 188.000
42.53000 153.000
42.74000 177.000
42.95000 142.000
43.16000 132.000
43.37000 129.000
43.58000 134.000
43.79000 125.000
44.00000 152.000
44.21000 162.000
44.42000 205.000
44.63000 216.000
44.84000 230.000
45.05000 191.000
45.26000 136.000
45.47000 126.000
45.68000 106.000
45.89000 121.000
46.10000 131.000
46.31000 124.000
46.52000 128.000
46.73000 135.000
46.94000 107.000
47.15000 113.000
47.36000 115.000
47.57000 111.000
47.78000 107.000
47.99000 103.000
48.20000 105.000
48.41000 99.000
48.62000 103.000
48.83000 113.000
49.04000 104.000
49.25000 99.000
49.46000 106.000
49.67000 102.000
49.88000 103.000
50.09000 100.000
50.30000 94.000
50.51000 100.000
50.72000 94.000
50.93000 116.000
51.14000 111.000
51.35000 112.000
51.56000 97.000
51.77000 101.000
51.98000 104.000
52.19000 88.000
52.40000 93.000
52.61000 115.000
52.82000 104.000
53.03000 103.000
53.24000 100.000
53.45000 92.000
53.66000 91.000
53.87000 102.000
54.08000 109.000
54.29000 111.000
54.50000 113.000
54.71000 93.000
54.92000 94.000
55.13000 95.000
55.34000 96.000
55.55000 110.000
55.76000 108.000
55.97000 143.000
56.18000 141.000
56.39000 114.000
56.60000 127.000
56.81000 118.000
57.02000 115.000
57.23000 124.000
57.44000 109.000
57.65000 116.000
57.86000 92.000
58.07000 89.000
58.28000 79.000
58.49000 94.000
58.70000 100.000
58.91000 91.000
59.12000 85.000
59.33000 105.000
59.54000 91.000
59.75000 86.000
59.96000 91.000
60.17000 92.000
60.38000 97.000
60.59000 98.000
60.80000 91.000
61.01000 84.000
61.22000 86.000
61.43000 98.000
61.64000 92.000
61.85000 97.000
61.98500 78.000