File: ISoD/xrd_data/HSC077.xy
2.00000 3.000
2.21000 5.000
2.42000 6.000
2.63000 6.000
2.84000 3.000
3.05000 1.000
3.26000 99.000
3.47000 254.000
3.68000 260.000
3.89000 228.000
4.10000 208.000
4.31000 214.000
4.52000 220.000
4.73000 237.000
4.94000 223.000
5.15000 241.000
5.36000 221.000
5.57000 254.000
5.78000 252.000
5.99000 369.000
6.20000 697.000
6.41000 270.000
6.62000 250.000
6.83000 278.000
7.04000 249.000
7.25000 244.000
7.46000 258.000
7.67000 286.000
7.88000 261.000
8.09000 264.000
8.30000 275.000
8.51000 291.000
8.72000 348.000
8.93000 323.000
9.14000 281.000
9.35000 291.000
9.56000 296.000
9.77000 320.000
9.98000 354.000
10.19000 467.000
10.40000 958.000
10.61000 722.000
10.82000 595.000
11.03000 996.000
11.24000 384.000
11.45000 294.000
11.66000 287.000
11.87000 299.000
12.08000 263.000
12.29000 290.000
12.50000 408.000
12.71000 301.000
12.92000 278.000
13.13000 283.000
13.34000 296.000
13.55000 265.000
13.76000 289.000
13.97000 293.000
14.18000 285.000
14.39000 297.000
14.60000 299.000
14.81000 305.000
15.02000 380.000
15.23000 284.000
15.44000 281.000
15.65000 291.000
15.86000 262.000
16.07000 277.000
16.28000 292.000
16.49000 270.000
16.70000 297.000
16.91000 295.000
17.12000 322.000
17.33000 345.000
17.54000 414.000
17.75000 357.000
17.96000 385.000
18.17000 318.000
18.38000 336.000
18.59000 379.000
18.80000 503.000
19.01000 410.000
19.22000 638.000
19.43000 351.000
19.64000 301.000
19.85000 328.000
20.06000 312.000
20.27000 315.000
20.48000 313.000
20.69000 327.000
20.90000 338.000
21.11000 380.000
21.32000 337.000
21.53000 348.000
21.74000 290.000
21.95000 305.000
22.16000 322.000
22.37000 329.000
22.58000 310.000
22.79000 340.000
23.00000 325.000
23.21000 343.000
23.42000 322.000
23.63000 328.000
23.84000 339.000
24.05000 321.000
24.26000 320.000
24.47000 521.000
24.68000 393.000
24.89000 401.000
25.10000 585.000
25.31000 509.000
25.52000 741.000
25.73000 629.000
25.94000 475.000
26.15000 498.000
26.36000 447.000
26.57000 957.000
26.78000 454.000
26.99000 426.000
27.20000 435.000
27.41000 526.000
27.62000 1119.000
27.83000 956.000
28.04000 1564.000
28.25000 929.000
28.46000 539.000
28.67000 456.000
28.88000 375.000
29.09000 331.000
29.30000 377.000
29.51000 341.000
29.72000 340.000
29.93000 345.000
30.14000 331.000
30.35000 383.000
30.56000 344.000
30.77000 301.000
30.98000 329.000
31.19000 265.000
31.40000 268.000
31.61000 333.000
31.82000 278.000
32.03000 306.000
32.24000 261.000
32.45000 260.000
32.66000 322.000
32.87000 229.000
33.08000 275.000
33.29000 260.000
33.50000 247.000
33.71000 341.000
33.92000 309.000
34.13000 255.000
34.34000 258.000
34.55000 218.000
34.76000 189.000
34.97000 207.000
35.18000 216.000
35.39000 224.000
35.60000 216.000
35.81000 333.000
36.02000 195.000
36.23000 189.000
36.44000 225.000
36.65000 185.000
36.86000 191.000
37.07000 194.000
37.28000 202.000
37.49000 190.000
37.70000 193.000
37.91000 190.000
38.12000 170.000
38.33000 171.000
38.54000 189.000
38.75000 225.000
38.96000 212.000
39.17000 192.000
39.38000 221.000
39.59000 191.000
39.80000 177.000
40.01000 154.000
40.22000 158.000
40.43000 164.000
40.64000 154.000
40.85000 200.000
41.06000 146.000
41.27000 145.000
41.48000 147.000
41.69000 146.000
41.90000 167.000
42.11000 164.000
42.32000 169.000
42.53000 175.000
42.74000 175.000
42.95000 162.000
43.16000 176.000
43.37000 176.000
43.58000 138.000
43.79000 145.000
44.00000 148.000
44.21000 157.000
44.42000 148.000
44.63000 165.000
44.84000 170.000
45.05000 172.000
45.26000 139.000
45.47000 188.000
45.68000 137.000
45.89000 138.000
46.10000 154.000
46.31000 140.000
46.52000 132.000
46.73000 136.000
46.94000 132.000
47.15000 161.000
47.36000 127.000
47.57000 147.000
47.78000 133.000
47.99000 148.000
48.20000 131.000
48.41000 150.000
48.62000 122.000
48.83000 119.000
49.04000 148.000
49.25000 132.000
49.46000 149.000
49.67000 120.000
49.88000 141.000
50.09000 154.000
50.30000 124.000
50.51000 146.000
50.72000 133.000
50.93000 109.000
51.14000 123.000
51.35000 136.000
51.56000 126.000
51.77000 122.000
51.98000 134.000
52.19000 143.000
52.40000 143.000
52.61000 134.000
52.82000 141.000
53.03000 138.000
53.24000 140.000
53.45000 132.000
53.66000 122.000
53.87000 136.000
54.08000 161.000
54.29000 148.000
54.50000 133.000
54.71000 126.000
54.92000 132.000
55.13000 136.000
55.34000 116.000
55.55000 133.000
55.76000 145.000
55.97000 130.000
56.18000 114.000
56.39000 125.000
56.60000 129.000
56.81000 129.000
57.02000 128.000
57.23000 120.000
57.44000 143.000
57.65000 139.000
57.86000 136.000
58.07000 143.000
58.28000 138.000
58.49000 146.000
58.70000 128.000
58.91000 111.000
59.12000 102.000
59.33000 108.000
59.54000 116.000
59.75000 112.000
59.96000 114.000
60.17000 116.000
60.38000 98.000
60.59000 119.000
60.80000 105.000
61.01000 114.000
61.22000 100.000
61.43000 108.000
61.64000 104.000
61.85000 94.000
61.98500 107.000