File: ISoD/xrd_data/HSC054.xy
2.00000 8.000
2.21000 11.000
2.42000 9.000
2.63000 8.000
2.84000 11.000
3.05000 84.000
3.26000 910.000
3.47000 873.000
3.68000 875.000
3.89000 753.000
4.10000 774.000
4.31000 765.000
4.52000 802.000
4.73000 782.000
4.94000 808.000
5.15000 853.000
5.36000 853.000
5.57000 985.000
5.78000 1229.000
5.99000 2920.000
6.20000 4127.000
6.41000 1013.000
6.62000 935.000
6.83000 924.000
7.04000 1210.000
7.25000 949.000
7.46000 914.000
7.67000 998.000
7.88000 910.000
8.09000 968.000
8.30000 931.000
8.51000 986.000
8.72000 941.000
8.93000 1001.000
9.14000 977.000
9.35000 1027.000
9.56000 1069.000
9.77000 1048.000
9.98000 974.000
10.19000 1021.000
10.40000 1032.000
10.61000 1569.000
10.82000 1390.000
11.03000 2335.000
11.24000 1231.000
11.45000 1163.000
11.66000 1204.000
11.87000 1289.000
12.08000 2494.000
12.29000 16047.000
12.50000 2233.000
12.71000 1432.000
12.92000 1283.000
13.13000 1247.000
13.34000 1431.000
13.55000 1208.000
13.76000 1367.000
13.97000 1240.000
14.18000 1194.000
14.39000 1121.000
14.60000 1086.000
14.81000 1136.000
15.02000 1100.000
15.23000 1133.000
15.44000 1138.000
15.65000 1092.000
15.86000 1134.000
16.07000 1187.000
16.28000 1230.000
16.49000 1172.000
16.70000 1155.000
16.91000 1106.000
17.12000 1236.000
17.33000 1230.000
17.54000 1368.000
17.75000 1329.000
17.96000 1267.000
18.17000 1278.000
18.38000 1389.000
18.59000 1616.000
18.80000 1378.000
19.01000 1331.000
19.22000 1325.000
19.43000 1287.000
19.64000 1269.000
19.85000 1266.000
20.06000 1326.000
20.27000 1344.000
20.48000 1379.000
20.69000 1285.000
20.90000 1246.000
21.11000 1313.000
21.32000 1366.000
21.53000 1329.000
21.74000 1381.000
21.95000 1406.000
22.16000 1501.000
22.37000 1472.000
22.58000 1535.000
22.79000 1569.000
23.00000 1588.000
23.21000 1803.000
23.42000 1917.000
23.63000 1878.000
23.84000 1893.000
24.05000 1709.000
24.26000 1581.000
24.47000 1586.000
24.68000 1991.000
24.89000 2044.000
25.10000 1715.000
25.31000 1745.000
25.52000 1900.000
25.73000 1908.000
25.94000 2094.000
26.15000 2823.000
26.36000 3733.000
26.57000 5113.000
26.78000 6179.000
26.99000 6310.000
27.20000 4872.000
27.41000 3666.000
27.62000 3377.000
27.83000 3313.000
28.04000 3157.000
28.25000 2654.000
28.46000 2164.000
28.67000 2026.000
28.88000 1919.000
29.09000 1812.000
29.30000 1719.000
29.51000 1546.000
29.72000 1420.000
29.93000 1424.000
30.14000 1419.000
30.35000 1454.000
30.56000 1395.000
30.77000 1415.000
30.98000 1868.000
31.19000 2350.000
31.40000 1435.000
31.61000 1250.000
31.82000 1166.000
32.03000 1140.000
32.24000 1143.000
32.45000 1016.000
32.66000 1077.000
32.87000 1015.000
33.08000 1082.000
33.29000 1060.000
33.50000 1034.000
33.71000 1069.000
33.92000 1052.000
34.13000 968.000
34.34000 1006.000
34.55000 972.000
34.76000 878.000
34.97000 853.000
35.18000 860.000
35.39000 831.000
35.60000 856.000
35.81000 788.000
36.02000 789.000
36.23000 760.000
36.44000 743.000
36.65000 730.000
36.86000 723.000
37.07000 734.000
37.28000 735.000
37.49000 942.000
37.70000 864.000
37.91000 801.000
38.12000 765.000
38.33000 722.000
38.54000 683.000
38.75000 701.000
38.96000 760.000
39.17000 784.000
39.38000 828.000
39.59000 766.000
39.80000 785.000
40.01000 730.000
40.22000 733.000
40.43000 787.000
40.64000 771.000
40.85000 776.000
41.06000 783.000
41.27000 805.000
41.48000 728.000
41.69000 687.000
41.90000 705.000
42.11000 694.000
42.32000 739.000
42.53000 732.000
42.74000 734.000
42.95000 740.000
43.16000 726.000
43.37000 705.000
43.58000 680.000
43.79000 735.000
44.00000 722.000
44.21000 695.000
44.42000 724.000
44.63000 707.000
44.84000 698.000
45.05000 666.000
45.26000 691.000
45.47000 704.000
45.68000 709.000
45.89000 719.000
46.10000 700.000
46.31000 670.000
46.52000 662.000
46.73000 662.000
46.94000 657.000
47.15000 644.000
47.36000 666.000
47.57000 635.000
47.78000 636.000
47.99000 594.000
48.20000 580.000
48.41000 628.000
48.62000 593.000
48.83000 593.000
49.04000 579.000
49.25000 606.000
49.46000 614.000
49.67000 616.000
49.88000 566.000
50.09000 593.000
50.30000 578.000
50.51000 568.000
50.72000 580.000
50.93000 598.000
51.14000 565.000
51.35000 596.000
51.56000 615.000
51.77000 622.000
51.98000 685.000
52.19000 690.000
52.40000 675.000
52.61000 657.000
52.82000 654.000
53.03000 724.000
53.24000 676.000
53.45000 617.000
53.66000 636.000
53.87000 642.000
54.08000 642.000
54.29000 639.000
54.50000 676.000
54.71000 677.000
54.92000 666.000
55.13000 629.000
55.34000 675.000
55.55000 660.000
55.76000 656.000
55.97000 598.000
56.18000 623.000
56.39000 593.000
56.60000 578.000
56.81000 601.000
57.02000 506.000
57.23000 563.000
57.44000 577.000
57.65000 536.000
57.86000 517.000
58.07000 545.000
58.28000 481.000
58.49000 501.000
58.70000 499.000
58.91000 483.000
59.12000 473.000
59.33000 484.000
59.54000 461.000
59.75000 466.000
59.96000 463.000
60.17000 449.000
60.38000 447.000
60.59000 459.000
60.80000 449.000
61.01000 433.000
61.22000 470.000
61.43000 483.000
61.64000 445.000
61.85000 463.000
61.98500 454.000