File: ISoD/xrd_data/HSC026_nachH2O_range_2.xy
2.00000 419.000
2.21000 345.000
2.42000 266.000
2.63000 247.000
2.84000 212.000
3.05000 185.000
3.26000 160.000
3.47000 157.000
3.68000 148.000
3.89000 150.000
4.10000 143.000
4.31000 173.000
4.52000 148.000
4.73000 140.000
4.94000 154.000
5.15000 132.000
5.36000 143.000
5.57000 149.000
5.78000 148.000
5.99000 134.000
6.20000 148.000
6.41000 149.000
6.62000 146.000
6.83000 160.000
7.04000 138.000
7.25000 154.000
7.46000 139.000
7.67000 130.000
7.88000 145.000
8.09000 160.000
8.30000 167.000
8.51000 197.000
8.72000 174.000
8.93000 166.000
9.14000 147.000
9.35000 168.000
9.56000 150.000
9.77000 150.000
9.98000 184.000
10.19000 134.000
10.40000 146.000
10.61000 162.000
10.82000 143.000
11.03000 184.000
11.24000 213.000
11.45000 411.000
11.66000 387.000
11.87000 291.000
12.08000 184.000
12.29000 151.000
12.50000 159.000
12.71000 169.000
12.92000 177.000
13.13000 172.000
13.34000 186.000
13.55000 148.000
13.76000 148.000
13.97000 146.000
14.18000 160.000
14.39000 155.000
14.60000 162.000
14.81000 150.000
15.02000 151.000
15.23000 139.000
15.44000 133.000
15.65000 164.000
15.86000 169.000
16.07000 158.000
16.28000 176.000
16.49000 174.000
16.70000 149.000
16.91000 155.000
17.12000 157.000
17.33000 175.000
17.54000 168.000
17.75000 184.000
17.96000 174.000
18.17000 167.000
18.38000 165.000
18.59000 188.000
18.80000 189.000
19.01000 197.000
19.22000 195.000
19.43000 194.000
19.64000 207.000
19.85000 168.000
20.06000 195.000
20.27000 193.000
20.48000 198.000
20.69000 224.000
20.90000 206.000
21.11000 224.000
21.32000 225.000
21.53000 219.000
21.74000 204.000
21.95000 203.000
22.16000 209.000
22.37000 241.000
22.58000 208.000
22.79000 201.000
23.00000 242.000
23.21000 244.000
23.42000 209.000
23.63000 220.000
23.84000 214.000
24.05000 219.000
24.26000 243.000
24.47000 259.000
24.68000 247.000
24.89000 281.000
25.10000 319.000
25.31000 357.000
25.52000 429.000
25.73000 353.000
25.94000 298.000
26.15000 269.000
26.36000 261.000
26.57000 307.000
26.78000 280.000
26.99000 361.000
27.20000 394.000
27.41000 473.000
27.62000 387.000
27.83000 316.000
28.04000 262.000
28.25000 220.000
28.46000 222.000
28.67000 204.000
28.88000 202.000
29.09000 216.000
29.30000 200.000
29.51000 197.000
29.72000 210.000
29.93000 206.000
30.14000 203.000
30.35000 231.000
30.56000 228.000
30.77000 214.000
30.98000 180.000
31.19000 180.000
31.40000 160.000
31.61000 186.000
31.82000 162.000
32.03000 137.000
32.24000 166.000
32.45000 135.000
32.66000 150.000
32.87000 166.000
33.08000 146.000
33.29000 137.000
33.50000 139.000
33.71000 158.000
33.92000 125.000
34.13000 137.000
34.34000 146.000
34.55000 113.000
34.76000 123.000
34.97000 139.000
35.18000 135.000
35.39000 131.000
35.60000 134.000
35.81000 115.000
36.02000 98.000
36.23000 119.000
36.44000 95.000
36.65000 113.000
36.86000 96.000
37.07000 121.000
37.28000 94.000
37.49000 108.000
37.70000 104.000
37.91000 90.000
38.12000 97.000
38.33000 111.000
38.54000 95.000
38.75000 92.000
38.96000 93.000
39.17000 98.000
39.38000 114.000
39.59000 99.000
39.80000 104.000
40.01000 108.000
40.22000 107.000
40.43000 109.000
40.64000 88.000
40.85000 110.000
41.06000 90.000
41.27000 98.000
41.48000 109.000
41.69000 115.000
41.90000 83.000
42.11000 99.000
42.32000 105.000
42.53000 84.000
42.74000 84.000
42.95000 86.000
43.16000 94.000
43.37000 101.000
43.58000 97.000
43.79000 85.000
44.00000 87.000
44.21000 94.000
44.42000 118.000
44.63000 93.000
44.84000 103.000
45.05000 89.000
45.26000 93.000
45.47000 99.000
45.68000 98.000
45.89000 99.000
46.10000 89.000
46.31000 90.000
46.52000 83.000
46.73000 93.000
46.94000 87.000
47.15000 91.000
47.36000 72.000
47.57000 88.000
47.78000 81.000
47.99000 73.000
48.20000 74.000
48.41000 87.000
48.62000 79.000
48.83000 90.000
49.04000 90.000
49.25000 76.000
49.46000 86.000
49.67000 89.000
49.88000 78.000
50.09000 79.000
50.30000 67.000
50.51000 88.000
50.72000 85.000
50.93000 71.000
51.14000 86.000
51.35000 70.000
51.56000 69.000
51.77000 81.000
51.98000 73.000
52.19000 80.000
52.40000 72.000
52.61000 87.000
52.82000 73.000
53.03000 75.000
53.24000 87.000
53.45000 75.000
53.66000 90.000
53.87000 81.000
54.08000 82.000
54.29000 76.000
54.50000 71.000
54.71000 81.000
54.92000 68.000
55.13000 77.000
55.34000 80.000
55.55000 73.000
55.76000 65.000
55.97000 81.000
56.18000 66.000
56.39000 85.000
56.60000 81.000
56.81000 74.000
57.02000 53.000
57.23000 71.000
57.44000 85.000
57.65000 70.000
57.86000 66.000
58.07000 77.000
58.28000 62.000
58.49000 69.000
58.70000 70.000
58.91000 63.000
59.12000 63.000
59.33000 70.000
59.54000 69.000
59.75000 67.000
59.96000 69.000
60.17000 76.000
60.38000 64.000
60.59000 76.000
60.80000 67.000
61.01000 68.000
61.22000 66.000
61.43000 77.000
61.64000 66.000
61.85000 83.000
61.98500 69.000