File: ISoD/xrd_data/HSC070.xy
2.00000 4.000
2.21000 1.000
2.42000 3.000
2.63000 3.000
2.84000 2.000
3.05000 2.000
3.26000 41.000
3.47000 60.000
3.68000 80.000
3.89000 91.000
4.10000 100.000
4.31000 98.000
4.52000 101.000
4.73000 137.000
4.94000 139.000
5.15000 130.000
5.36000 134.000
5.57000 136.000
5.78000 136.000
5.99000 146.000
6.20000 137.000
6.41000 162.000
6.62000 163.000
6.83000 141.000
7.04000 147.000
7.25000 135.000
7.46000 159.000
7.67000 177.000
7.88000 160.000
8.09000 160.000
8.30000 177.000
8.51000 356.000
8.72000 2232.000
8.93000 240.000
9.14000 167.000
9.35000 167.000
9.56000 192.000
9.77000 183.000
9.98000 152.000
10.19000 176.000
10.40000 163.000
10.61000 191.000
10.82000 162.000
11.03000 173.000
11.24000 171.000
11.45000 170.000
11.66000 167.000
11.87000 175.000
12.08000 172.000
12.29000 161.000
12.50000 178.000
12.71000 209.000
12.92000 230.000
13.13000 1690.000
13.34000 176.000
13.55000 181.000
13.76000 173.000
13.97000 185.000
14.18000 198.000
14.39000 175.000
14.60000 205.000
14.81000 668.000
15.02000 222.000
15.23000 648.000
15.44000 186.000
15.65000 214.000
15.86000 308.000
16.07000 183.000
16.28000 188.000
16.49000 181.000
16.70000 173.000
16.91000 187.000
17.12000 198.000
17.33000 318.000
17.54000 1276.000
17.75000 1284.000
17.96000 357.000
18.17000 204.000
18.38000 189.000
18.59000 204.000
18.80000 192.000
19.01000 939.000
19.22000 215.000
19.43000 203.000
19.64000 192.000
19.85000 183.000
20.06000 236.000
20.27000 244.000
20.48000 192.000
20.69000 226.000
20.90000 198.000
21.11000 196.000
21.32000 216.000
21.53000 473.000
21.74000 532.000
21.95000 403.000
22.16000 376.000
22.37000 208.000
22.58000 203.000
22.79000 209.000
23.00000 178.000
23.21000 238.000
23.42000 643.000
23.63000 241.000
23.84000 257.000
24.05000 1097.000
24.26000 265.000
24.47000 2131.000
24.68000 261.000
24.89000 249.000
25.10000 1512.000
25.31000 430.000
25.52000 1251.000
25.73000 1328.000
25.94000 271.000
26.15000 3773.000
26.36000 399.000
26.57000 845.000
26.78000 312.000
26.99000 393.000
27.20000 410.000
27.41000 279.000
27.62000 312.000
27.83000 266.000
28.04000 3323.000
28.25000 246.000
28.46000 271.000
28.67000 284.000
28.88000 1541.000
29.09000 268.000
29.30000 302.000
29.51000 201.000
29.72000 768.000
29.93000 420.000
30.14000 208.000
30.35000 467.000
30.56000 235.000
30.77000 514.000
30.98000 226.000
31.19000 307.000
31.40000 852.000
31.61000 739.000
31.82000 287.000
32.03000 299.000
32.24000 159.000
32.45000 185.000
32.66000 193.000
32.87000 167.000
33.08000 182.000
33.29000 187.000
33.50000 257.000
33.71000 215.000
33.92000 266.000
34.13000 180.000
34.34000 300.000
34.55000 873.000
34.76000 220.000
34.97000 455.000
35.18000 390.000
35.39000 193.000
35.60000 454.000
35.81000 690.000
36.02000 273.000
36.23000 990.000
36.44000 421.000
36.65000 300.000
36.86000 353.000
37.07000 338.000
37.28000 203.000
37.49000 215.000
37.70000 341.000
37.91000 185.000
38.12000 199.000
38.33000 1004.000
38.54000 182.000
38.75000 178.000
38.96000 383.000
39.17000 194.000
39.38000 137.000
39.59000 183.000
39.80000 183.000
40.01000 165.000
40.22000 418.000
40.43000 333.000
40.64000 399.000
40.85000 161.000
41.06000 243.000
41.27000 145.000
41.48000 138.000
41.69000 163.000
41.90000 198.000
42.11000 288.000
42.32000 220.000
42.53000 460.000
42.74000 441.000
42.95000 220.000
43.16000 167.000
43.37000 226.000
43.58000 360.000
43.79000 224.000
44.00000 381.000
44.21000 354.000
44.42000 248.000
44.63000 189.000
44.84000 523.000
45.05000 369.000
45.26000 235.000
45.47000 356.000
45.68000 421.000
45.89000 145.000
46.10000 160.000
46.31000 209.000
46.52000 163.000
46.73000 200.000
46.94000 349.000
47.15000 362.000
47.36000 282.000
47.57000 957.000
47.78000 401.000
47.99000 519.000
48.20000 421.000
48.41000 245.000
48.62000 209.000
48.83000 209.000
49.04000 399.000
49.25000 175.000
49.46000 248.000
49.67000 181.000
49.88000 160.000
50.09000 286.000
50.30000 389.000
50.51000 174.000
50.72000 162.000
50.93000 150.000
51.14000 150.000
51.35000 170.000
51.56000 343.000
51.77000 342.000
51.98000 219.000
52.19000 245.000
52.40000 228.000
52.61000 188.000
52.82000 196.000
53.03000 504.000
53.24000 189.000
53.45000 133.000
53.66000 187.000
53.87000 164.000
54.08000 146.000
54.29000 250.000
54.50000 338.000
54.71000 208.000
54.92000 402.000
55.13000 251.000
55.34000 254.000
55.55000 435.000
55.76000 230.000
55.97000 221.000
56.18000 327.000
56.39000 186.000
56.60000 187.000
56.81000 163.000
57.02000 132.000
57.23000 267.000
57.44000 165.000
57.65000 161.000
57.86000 173.000
58.07000 173.000
58.28000 141.000
58.49000 138.000
58.70000 133.000
58.91000 219.000
59.12000 213.000
59.33000 210.000
59.54000 235.000
59.75000 163.000
59.96000 188.000
60.17000 201.000
60.38000 168.000
60.59000 311.000
60.80000 151.000
61.01000 170.000
61.22000 192.000
61.43000 183.000
61.64000 163.000
61.85000 163.000
61.98500 193.000