File: ISoD/xrd_data/HSC026_nach_Photokat..xy
2.00000 514.000
2.21000 425.000
2.42000 354.000
2.63000 303.000
2.84000 275.000
3.05000 237.000
3.26000 237.000
3.47000 209.000
3.68000 221.000
3.89000 191.000
4.10000 207.000
4.31000 211.000
4.52000 197.000
4.73000 209.000
4.94000 216.000
5.15000 178.000
5.36000 207.000
5.57000 213.000
5.78000 189.000
5.99000 222.000
6.20000 203.000
6.41000 209.000
6.62000 198.000
6.83000 212.000
7.04000 187.000
7.25000 223.000
7.46000 197.000
7.67000 199.000
7.88000 209.000
8.09000 221.000
8.30000 227.000
8.51000 264.000
8.72000 251.000
8.93000 208.000
9.14000 241.000
9.35000 217.000
9.56000 207.000
9.77000 236.000
9.98000 243.000
10.19000 223.000
10.40000 225.000
10.61000 234.000
10.82000 223.000
11.03000 230.000
11.24000 312.000
11.45000 583.000
11.66000 559.000
11.87000 411.000
12.08000 304.000
12.29000 219.000
12.50000 199.000
12.71000 213.000
12.92000 286.000
13.13000 247.000
13.34000 243.000
13.55000 227.000
13.76000 204.000
13.97000 207.000
14.18000 226.000
14.39000 200.000
14.60000 197.000
14.81000 198.000
15.02000 214.000
15.23000 200.000
15.44000 200.000
15.65000 216.000
15.86000 217.000
16.07000 214.000
16.28000 245.000
16.49000 231.000
16.70000 223.000
16.91000 220.000
17.12000 201.000
17.33000 215.000
17.54000 248.000
17.75000 235.000
17.96000 215.000
18.17000 235.000
18.38000 248.000
18.59000 240.000
18.80000 255.000
19.01000 287.000
19.22000 267.000
19.43000 250.000
19.64000 291.000
19.85000 242.000
20.06000 267.000
20.27000 260.000
20.48000 277.000
20.69000 259.000
20.90000 263.000
21.11000 288.000
21.32000 279.000
21.53000 289.000
21.74000 321.000
21.95000 272.000
22.16000 281.000
22.37000 292.000
22.58000 310.000
22.79000 309.000
23.00000 304.000
23.21000 306.000
23.42000 349.000
23.63000 329.000
23.84000 323.000
24.05000 388.000
24.26000 322.000
24.47000 323.000
24.68000 365.000
24.89000 393.000
25.10000 410.000
25.31000 499.000
25.52000 631.000
25.73000 511.000
25.94000 438.000
26.15000 358.000
26.36000 391.000
26.57000 423.000
26.78000 414.000
26.99000 494.000
27.20000 541.000
27.41000 685.000
27.62000 555.000
27.83000 391.000
28.04000 328.000
28.25000 311.000
28.46000 294.000
28.67000 260.000
28.88000 285.000
29.09000 275.000
29.30000 279.000
29.51000 261.000
29.72000 286.000
29.93000 267.000
30.14000 262.000
30.35000 315.000
30.56000 274.000
30.77000 257.000
30.98000 256.000
31.19000 246.000
31.40000 223.000
31.61000 221.000
31.82000 215.000
32.03000 249.000
32.24000 213.000
32.45000 233.000
32.66000 209.000
32.87000 212.000
33.08000 179.000
33.29000 193.000
33.50000 201.000
33.71000 184.000
33.92000 177.000
34.13000 179.000
34.34000 187.000
34.55000 179.000
34.76000 184.000
34.97000 158.000
35.18000 177.000
35.39000 172.000
35.60000 168.000
35.81000 148.000
36.02000 165.000
36.23000 151.000
36.44000 148.000
36.65000 179.000
36.86000 144.000
37.07000 142.000
37.28000 124.000
37.49000 122.000
37.70000 131.000
37.91000 130.000
38.12000 137.000
38.33000 149.000
38.54000 150.000
38.75000 137.000
38.96000 143.000
39.17000 154.000
39.38000 136.000
39.59000 136.000
39.80000 141.000
40.01000 148.000
40.22000 151.000
40.43000 145.000
40.64000 154.000
40.85000 141.000
41.06000 141.000
41.27000 150.000
41.48000 144.000
41.69000 131.000
41.90000 147.000
42.11000 152.000
42.32000 127.000
42.53000 117.000
42.74000 139.000
42.95000 136.000
43.16000 125.000
43.37000 126.000
43.58000 120.000
43.79000 125.000
44.00000 114.000
44.21000 128.000
44.42000 140.000
44.63000 117.000
44.84000 128.000
45.05000 130.000
45.26000 122.000
45.47000 116.000
45.68000 120.000
45.89000 111.000
46.10000 112.000
46.31000 122.000
46.52000 122.000
46.73000 127.000
46.94000 124.000
47.15000 133.000
47.36000 105.000
47.57000 120.000
47.78000 110.000
47.99000 134.000
48.20000 127.000
48.41000 103.000
48.62000 114.000
48.83000 107.000
49.04000 105.000
49.25000 126.000
49.46000 113.000
49.67000 99.000
49.88000 106.000
50.09000 127.000
50.30000 104.000
50.51000 126.000
50.72000 96.000
50.93000 114.000
51.14000 103.000
51.35000 104.000
51.56000 102.000
51.77000 110.000
51.98000 88.000
52.19000 111.000
52.40000 105.000
52.61000 110.000
52.82000 111.000
53.03000 119.000
53.24000 111.000
53.45000 104.000
53.66000 111.000
53.87000 99.000
54.08000 117.000
54.29000 104.000
54.50000 105.000
54.71000 103.000
54.92000 104.000
55.13000 118.000
55.34000 111.000
55.55000 93.000
55.76000 105.000
55.97000 91.000
56.18000 95.000
56.39000 117.000
56.60000 97.000
56.81000 96.000
57.02000 106.000
57.23000 99.000
57.44000 107.000
57.65000 97.000
57.86000 117.000
58.07000 112.000
58.28000 84.000
58.49000 102.000
58.70000 105.000
58.91000 108.000
59.12000 103.000
59.33000 117.000
59.54000 105.000
59.75000 107.000
59.96000 96.000
60.17000 99.000
60.38000 88.000
60.59000 108.000
60.80000 101.000
61.01000 104.000
61.22000 128.000
61.43000 104.000
61.64000 101.000
61.85000 86.000
61.98500 96.000