File: ISoD/xrd_data/HSC067.xy
2.00000 7.000
2.21000 3.000
2.42000 4.000
2.63000 4.000
2.84000 934.000
3.05000 847.000
3.26000 731.000
3.47000 647.000
3.68000 576.000
3.89000 548.000
4.10000 503.000
4.31000 498.000
4.52000 448.000
4.73000 469.000
4.94000 462.000
5.15000 431.000
5.36000 429.000
5.57000 430.000
5.78000 436.000
5.99000 425.000
6.20000 398.000
6.41000 429.000
6.62000 454.000
6.83000 395.000
7.04000 470.000
7.25000 467.000
7.46000 478.000
7.67000 518.000
7.88000 546.000
8.09000 637.000
8.30000 626.000
8.51000 634.000
8.72000 496.000
8.93000 478.000
9.14000 437.000
9.35000 418.000
9.56000 435.000
9.77000 443.000
9.98000 404.000
10.19000 446.000
10.40000 404.000
10.61000 427.000
10.82000 442.000
11.03000 479.000
11.24000 479.000
11.45000 526.000
11.66000 558.000
11.87000 621.000
12.08000 608.000
12.29000 587.000
12.50000 543.000
12.71000 511.000
12.92000 465.000
13.13000 439.000
13.34000 427.000
13.55000 415.000
13.76000 448.000
13.97000 465.000
14.18000 452.000
14.39000 415.000
14.60000 425.000
14.81000 438.000
15.02000 405.000
15.23000 410.000
15.44000 421.000
15.65000 418.000
15.86000 409.000
16.07000 409.000
16.28000 419.000
16.49000 420.000
16.70000 402.000
16.91000 408.000
17.12000 438.000
17.33000 422.000
17.54000 425.000
17.75000 421.000
17.96000 405.000
18.17000 425.000
18.38000 410.000
18.59000 442.000
18.80000 450.000
19.01000 426.000
19.22000 434.000
19.43000 429.000
19.64000 441.000
19.85000 438.000
20.06000 477.000
20.27000 504.000
20.48000 491.000
20.69000 525.000
20.90000 514.000
21.11000 535.000
21.32000 544.000
21.53000 536.000
21.74000 515.000
21.95000 468.000
22.16000 487.000
22.37000 475.000
22.58000 509.000
22.79000 500.000
23.00000 485.000
23.21000 522.000
23.42000 528.000
23.63000 538.000
23.84000 542.000
24.05000 542.000
24.26000 541.000
24.47000 568.000
24.68000 547.000
24.89000 585.000
25.10000 573.000
25.31000 632.000
25.52000 614.000
25.73000 695.000
25.94000 714.000
26.15000 795.000
26.36000 871.000
26.57000 1005.000
26.78000 1022.000
26.99000 1069.000
27.20000 1040.000
27.41000 974.000
27.62000 980.000
27.83000 957.000
28.04000 930.000
28.25000 918.000
28.46000 867.000
28.67000 757.000
28.88000 670.000
29.09000 694.000
29.30000 689.000
29.51000 663.000
29.72000 626.000
29.93000 580.000
30.14000 504.000
30.35000 512.000
30.56000 501.000
30.77000 477.000
30.98000 494.000
31.19000 482.000
31.40000 460.000
31.61000 447.000
31.82000 424.000
32.03000 455.000
32.24000 452.000
32.45000 430.000
32.66000 430.000
32.87000 404.000
33.08000 403.000
33.29000 398.000
33.50000 364.000
33.71000 377.000
33.92000 374.000
34.13000 316.000
34.34000 361.000
34.55000 333.000
34.76000 321.000
34.97000 315.000
35.18000 331.000
35.39000 319.000
35.60000 313.000
35.81000 328.000
36.02000 325.000
36.23000 343.000
36.44000 327.000
36.65000 293.000
36.86000 310.000
37.07000 297.000
37.28000 275.000
37.49000 299.000
37.70000 316.000
37.91000 277.000
38.12000 275.000
38.33000 259.000
38.54000 280.000
38.75000 254.000
38.96000 260.000
39.17000 279.000
39.38000 253.000
39.59000 287.000
39.80000 270.000
40.01000 273.000
40.22000 239.000
40.43000 267.000
40.64000 245.000
40.85000 242.000
41.06000 241.000
41.27000 244.000
41.48000 268.000
41.69000 236.000
41.90000 263.000
42.11000 264.000
42.32000 264.000
42.53000 289.000
42.74000 274.000
42.95000 285.000
43.16000 287.000
43.37000 288.000
43.58000 237.000
43.79000 303.000
44.00000 262.000
44.21000 255.000
44.42000 275.000
44.63000 282.000
44.84000 256.000
45.05000 259.000
45.26000 263.000
45.47000 253.000
45.68000 255.000
45.89000 229.000
46.10000 231.000
46.31000 247.000
46.52000 233.000
46.73000 244.000
46.94000 233.000
47.15000 214.000
47.36000 210.000
47.57000 218.000
47.78000 205.000
47.99000 210.000
48.20000 207.000
48.41000 196.000
48.62000 204.000
48.83000 180.000
49.04000 197.000
49.25000 202.000
49.46000 208.000
49.67000 192.000
49.88000 189.000
50.09000 207.000
50.30000 192.000
50.51000 220.000
50.72000 206.000
50.93000 205.000
51.14000 219.000
51.35000 215.000
51.56000 195.000
51.77000 179.000
51.98000 199.000
52.19000 192.000
52.40000 193.000
52.61000 179.000
52.82000 192.000
53.03000 190.000
53.24000 191.000
53.45000 205.000
53.66000 205.000
53.87000 192.000
54.08000 189.000
54.29000 207.000
54.50000 201.000
54.71000 215.000
54.92000 199.000
55.13000 188.000
55.34000 197.000
55.55000 210.000
55.76000 221.000
55.97000 195.000
56.18000 202.000
56.39000 194.000
56.60000 177.000
56.81000 192.000
57.02000 193.000
57.23000 191.000
57.44000 192.000
57.65000 178.000
57.86000 192.000
58.07000 162.000
58.28000 157.000
58.49000 175.000
58.70000 176.000
58.91000 179.000
59.12000 167.000
59.33000 177.000
59.54000 178.000
59.75000 154.000
59.96000 170.000
60.17000 164.000
60.38000 172.000
60.59000 154.000
60.80000 165.000
61.01000 167.000
61.22000 170.000
61.43000 154.000
61.64000 153.000
61.85000 162.000
61.98500 176.000