File: ISoD/xrd_data/HSC196_NM_range_2.xy
2.00000 5.000
2.21000 5.000
2.42000 1.000
2.63000 2.000
2.84000 114.000
3.05000 256.000
3.26000 299.000
3.47000 294.000
3.68000 304.000
3.89000 311.000
4.10000 340.000
4.31000 342.000
4.52000 342.000
4.73000 352.000
4.94000 355.000
5.15000 400.000
5.36000 395.000
5.57000 404.000
5.78000 430.000
5.99000 410.000
6.20000 405.000
6.41000 420.000
6.62000 423.000
6.83000 467.000
7.04000 424.000
7.25000 474.000
7.46000 479.000
7.67000 557.000
7.88000 1172.000
8.09000 766.000
8.30000 576.000
8.51000 544.000
8.72000 569.000
8.93000 532.000
9.14000 534.000
9.35000 557.000
9.56000 580.000
9.77000 594.000
9.98000 813.000
10.19000 798.000
10.40000 574.000
10.61000 512.000
10.82000 503.000
11.03000 502.000
11.24000 519.000
11.45000 487.000
11.66000 513.000
11.87000 497.000
12.08000 518.000
12.29000 478.000
12.50000 486.000
12.71000 499.000
12.92000 480.000
13.13000 488.000
13.34000 492.000
13.55000 458.000
13.76000 469.000
13.97000 463.000
14.18000 517.000
14.39000 487.000
14.60000 500.000
14.81000 487.000
15.02000 548.000
15.23000 608.000
15.44000 523.000
15.65000 508.000
15.86000 468.000
16.07000 509.000
16.28000 474.000
16.49000 466.000
16.70000 482.000
16.91000 530.000
17.12000 523.000
17.33000 477.000
17.54000 529.000
17.75000 508.000
17.96000 505.000
18.17000 512.000
18.38000 549.000
18.59000 696.000
18.80000 618.000
19.01000 518.000
19.22000 463.000
19.43000 534.000
19.64000 496.000
19.85000 480.000
20.06000 525.000
20.27000 525.000
20.48000 529.000
20.69000 523.000
20.90000 573.000
21.11000 547.000
21.32000 600.000
21.53000 597.000
21.74000 637.000
21.95000 683.000
22.16000 678.000
22.37000 658.000
22.58000 675.000
22.79000 757.000
23.00000 890.000
23.21000 731.000
23.42000 708.000
23.63000 632.000
23.84000 678.000
24.05000 734.000
24.26000 677.000
24.47000 766.000
24.68000 776.000
24.89000 744.000
25.10000 800.000
25.31000 757.000
25.52000 861.000
25.73000 863.000
25.94000 844.000
26.15000 823.000
26.36000 865.000
26.57000 863.000
26.78000 898.000
26.99000 1016.000
27.20000 1087.000
27.41000 1328.000
27.62000 2547.000
27.83000 3231.000
28.04000 2492.000
28.25000 1649.000
28.46000 1284.000
28.67000 1105.000
28.88000 945.000
29.09000 961.000
29.30000 815.000
29.51000 723.000
29.72000 771.000
29.93000 720.000
30.14000 749.000
30.35000 825.000
30.56000 795.000
30.77000 736.000
30.98000 676.000
31.19000 630.000
31.40000 670.000
31.61000 647.000
31.82000 672.000
32.03000 649.000
32.24000 660.000
32.45000 720.000
32.66000 569.000
32.87000 484.000
33.08000 494.000
33.29000 470.000
33.50000 432.000
33.71000 470.000
33.92000 413.000
34.13000 442.000
34.34000 434.000
34.55000 447.000
34.76000 444.000
34.97000 453.000
35.18000 486.000
35.39000 675.000
35.60000 634.000
35.81000 483.000
36.02000 471.000
36.23000 509.000
36.44000 568.000
36.65000 573.000
36.86000 458.000
37.07000 472.000
37.28000 510.000
37.49000 547.000
37.70000 505.000
37.91000 484.000
38.12000 454.000
38.33000 425.000
38.54000 463.000
38.75000 480.000
38.96000 444.000
39.17000 400.000
39.38000 381.000
39.59000 424.000
39.80000 421.000
40.01000 437.000
40.22000 420.000
40.43000 463.000
40.64000 406.000
40.85000 403.000
41.06000 406.000
41.27000 354.000
41.48000 384.000
41.69000 364.000
41.90000 365.000
42.11000 352.000
42.32000 350.000
42.53000 380.000
42.74000 381.000
42.95000 404.000
43.16000 559.000
43.37000 584.000
43.58000 456.000
43.79000 400.000
44.00000 401.000
44.21000 381.000
44.42000 465.000
44.63000 424.000
44.84000 410.000
45.05000 401.000
45.26000 424.000
45.47000 393.000
45.68000 375.000
45.89000 375.000
46.10000 395.000
46.31000 386.000
46.52000 361.000
46.73000 376.000
46.94000 323.000
47.15000 332.000
47.36000 320.000
47.57000 299.000
47.78000 304.000
47.99000 316.000
48.20000 305.000
48.41000 268.000
48.62000 293.000
48.83000 272.000
49.04000 253.000
49.25000 258.000
49.46000 272.000
49.67000 282.000
49.88000 278.000
50.09000 340.000
50.30000 286.000
50.51000 273.000
50.72000 283.000
50.93000 306.000
51.14000 256.000
51.35000 293.000
51.56000 281.000
51.77000 279.000
51.98000 266.000
52.19000 261.000
52.40000 264.000
52.61000 271.000
52.82000 304.000
53.03000 291.000
53.24000 276.000
53.45000 269.000
53.66000 258.000
53.87000 268.000
54.08000 283.000
54.29000 282.000
54.50000 259.000
54.71000 261.000
54.92000 239.000
55.13000 248.000
55.34000 247.000
55.55000 241.000
55.76000 233.000
55.97000 250.000
56.18000 275.000
56.39000 253.000
56.60000 259.000
56.81000 281.000
57.02000 285.000
57.23000 276.000
57.44000 302.000
57.65000 274.000
57.86000 279.000
58.07000 273.000
58.28000 274.000
58.49000 273.000
58.70000 267.000
58.91000 277.000
59.12000 256.000
59.33000 253.000
59.54000 255.000
59.75000 244.000
59.96000 236.000
60.17000 234.000
60.38000 235.000
60.59000 250.000
60.80000 243.000
61.01000 247.000
61.22000 214.000
61.43000 226.000
61.64000 198.000
61.85000 216.000
61.98500 235.000