File: ISoD/xrd_data/HSC196_NM_range_4.xy
2.00000 4.000
2.21000 3.000
2.42000 2.000
2.63000 4.000
2.84000 119.000
3.05000 260.000
3.26000 274.000
3.47000 303.000
3.68000 312.000
3.89000 282.000
4.10000 335.000
4.31000 344.000
4.52000 351.000
4.73000 351.000
4.94000 368.000
5.15000 379.000
5.36000 416.000
5.57000 407.000
5.78000 413.000
5.99000 419.000
6.20000 386.000
6.41000 415.000
6.62000 418.000
6.83000 421.000
7.04000 474.000
7.25000 461.000
7.46000 463.000
7.67000 570.000
7.88000 1151.000
8.09000 756.000
8.30000 580.000
8.51000 525.000
8.72000 490.000
8.93000 533.000
9.14000 519.000
9.35000 520.000
9.56000 543.000
9.77000 589.000
9.98000 835.000
10.19000 803.000
10.40000 577.000
10.61000 526.000
10.82000 531.000
11.03000 539.000
11.24000 517.000
11.45000 494.000
11.66000 525.000
11.87000 476.000
12.08000 546.000
12.29000 478.000
12.50000 483.000
12.71000 488.000
12.92000 454.000
13.13000 500.000
13.34000 491.000
13.55000 442.000
13.76000 510.000
13.97000 463.000
14.18000 467.000
14.39000 504.000
14.60000 502.000
14.81000 466.000
15.02000 536.000
15.23000 598.000
15.44000 473.000
15.65000 512.000
15.86000 497.000
16.07000 468.000
16.28000 451.000
16.49000 521.000
16.70000 456.000
16.91000 445.000
17.12000 462.000
17.33000 484.000
17.54000 487.000
17.75000 486.000
17.96000 470.000
18.17000 506.000
18.38000 542.000
18.59000 654.000
18.80000 593.000
19.01000 543.000
19.22000 495.000
19.43000 492.000
19.64000 515.000
19.85000 493.000
20.06000 510.000
20.27000 481.000
20.48000 543.000
20.69000 551.000
20.90000 526.000
21.11000 566.000
21.32000 517.000
21.53000 564.000
21.74000 597.000
21.95000 656.000
22.16000 667.000
22.37000 618.000
22.58000 660.000
22.79000 741.000
23.00000 834.000
23.21000 740.000
23.42000 666.000
23.63000 668.000
23.84000 615.000
24.05000 705.000
24.26000 651.000
24.47000 730.000
24.68000 728.000
24.89000 758.000
25.10000 757.000
25.31000 748.000
25.52000 851.000
25.73000 866.000
25.94000 834.000
26.15000 826.000
26.36000 837.000
26.57000 837.000
26.78000 920.000
26.99000 944.000
27.20000 1053.000
27.41000 1273.000
27.62000 2508.000
27.83000 3206.000
28.04000 2506.000
28.25000 1710.000
28.46000 1287.000
28.67000 1045.000
28.88000 892.000
29.09000 941.000
29.30000 865.000
29.51000 764.000
29.72000 747.000
29.93000 726.000
30.14000 765.000
30.35000 763.000
30.56000 801.000
30.77000 769.000
30.98000 633.000
31.19000 611.000
31.40000 694.000
31.61000 612.000
31.82000 615.000
32.03000 607.000
32.24000 708.000
32.45000 726.000
32.66000 517.000
32.87000 485.000
33.08000 472.000
33.29000 466.000
33.50000 420.000
33.71000 466.000
33.92000 413.000
34.13000 439.000
34.34000 422.000
34.55000 399.000
34.76000 437.000
34.97000 481.000
35.18000 504.000
35.39000 710.000
35.60000 622.000
35.81000 507.000
36.02000 453.000
36.23000 513.000
36.44000 572.000
36.65000 543.000
36.86000 439.000
37.07000 465.000
37.28000 513.000
37.49000 504.000
37.70000 483.000
37.91000 487.000
38.12000 464.000
38.33000 450.000
38.54000 483.000
38.75000 523.000
38.96000 446.000
39.17000 374.000
39.38000 392.000
39.59000 388.000
39.80000 408.000
40.01000 439.000
40.22000 424.000
40.43000 434.000
40.64000 391.000
40.85000 400.000
41.06000 381.000
41.27000 366.000
41.48000 359.000
41.69000 348.000
41.90000 356.000
42.11000 358.000
42.32000 342.000
42.53000 347.000
42.74000 366.000
42.95000 389.000
43.16000 516.000
43.37000 560.000
43.58000 456.000
43.79000 406.000
44.00000 352.000
44.21000 410.000
44.42000 443.000
44.63000 433.000
44.84000 407.000
45.05000 402.000
45.26000 404.000
45.47000 388.000
45.68000 382.000
45.89000 357.000
46.10000 368.000
46.31000 367.000
46.52000 345.000
46.73000 347.000
46.94000 337.000
47.15000 307.000
47.36000 323.000
47.57000 307.000
47.78000 294.000
47.99000 332.000
48.20000 276.000
48.41000 273.000
48.62000 262.000
48.83000 247.000
49.04000 282.000
49.25000 248.000
49.46000 283.000
49.67000 266.000
49.88000 281.000
50.09000 344.000
50.30000 284.000
50.51000 293.000
50.72000 279.000
50.93000 288.000
51.14000 297.000
51.35000 284.000
51.56000 313.000
51.77000 256.000
51.98000 263.000
52.19000 243.000
52.40000 272.000
52.61000 260.000
52.82000 303.000
53.03000 297.000
53.24000 290.000
53.45000 283.000
53.66000 271.000
53.87000 264.000
54.08000 261.000
54.29000 263.000
54.50000 285.000
54.71000 270.000
54.92000 239.000
55.13000 243.000
55.34000 250.000
55.55000 229.000
55.76000 231.000
55.97000 226.000
56.18000 252.000
56.39000 234.000
56.60000 248.000
56.81000 259.000
57.02000 272.000
57.23000 274.000
57.44000 288.000
57.65000 280.000
57.86000 251.000
58.07000 272.000
58.28000 296.000
58.49000 235.000
58.70000 259.000
58.91000 255.000
59.12000 263.000
59.33000 248.000
59.54000 204.000
59.75000 242.000
59.96000 220.000
60.17000 232.000
60.38000 246.000
60.59000 246.000
60.80000 227.000
61.01000 230.000
61.22000 237.000
61.43000 248.000
61.64000 220.000
61.85000 224.000
61.98500 203.000