File: ISoD/xrd_data/HSC134.xyd
2.00000 7.000
2.21000 6.000
2.42000 8.000
2.63000 6.000
2.84000 8.000
3.05000 4.000
3.26000 380.000
3.47000 756.000
3.68000 646.000
3.89000 614.000
4.10000 585.000
4.31000 551.000
4.52000 480.000
4.73000 473.000
4.94000 489.000
5.15000 505.000
5.36000 480.000
5.57000 462.000
5.78000 443.000
5.99000 442.000
6.20000 497.000
6.41000 498.000
6.62000 487.000
6.83000 477.000
7.04000 527.000
7.25000 515.000
7.46000 598.000
7.67000 761.000
7.88000 1100.000
8.09000 1071.000
8.30000 845.000
8.51000 768.000
8.72000 690.000
8.93000 759.000
9.14000 671.000
9.35000 700.000
9.56000 684.000
9.77000 762.000
9.98000 792.000
10.19000 736.000
10.40000 668.000
10.61000 612.000
10.82000 554.000
11.03000 559.000
11.24000 591.000
11.45000 554.000
11.66000 559.000
11.87000 512.000
12.08000 513.000
12.29000 528.000
12.50000 544.000
12.71000 589.000
12.92000 587.000
13.13000 619.000
13.34000 610.000
13.55000 574.000
13.76000 546.000
13.97000 558.000
14.18000 580.000
14.39000 579.000
14.60000 587.000
14.81000 627.000
15.02000 608.000
15.23000 627.000
15.44000 632.000
15.65000 587.000
15.86000 580.000
16.07000 580.000
16.28000 597.000
16.49000 583.000
16.70000 552.000
16.91000 529.000
17.12000 588.000
17.33000 531.000
17.54000 611.000
17.75000 559.000
17.96000 589.000
18.17000 549.000
18.38000 578.000
18.59000 566.000
18.80000 636.000
19.01000 588.000
19.22000 568.000
19.43000 591.000
19.64000 599.000
19.85000 552.000
20.06000 588.000
20.27000 595.000
20.48000 571.000
20.69000 563.000
20.90000 644.000
21.11000 659.000
21.32000 679.000
21.53000 684.000
21.74000 688.000
21.95000 691.000
22.16000 664.000
22.37000 657.000
22.58000 731.000
22.79000 737.000
23.00000 716.000
23.21000 678.000
23.42000 750.000
23.63000 709.000
23.84000 713.000
24.05000 685.000
24.26000 680.000
24.47000 710.000
24.68000 740.000
24.89000 656.000
25.10000 725.000
25.31000 745.000
25.52000 741.000
25.73000 764.000
25.94000 771.000
26.15000 816.000
26.36000 829.000
26.57000 876.000
26.78000 949.000
26.99000 1037.000
27.20000 1190.000
27.41000 1372.000
27.62000 1554.000
27.83000 1920.000
28.04000 2784.000
28.25000 2783.000
28.46000 1760.000
28.67000 1272.000
28.88000 1057.000
29.09000 959.000
29.30000 889.000
29.51000 814.000
29.72000 754.000
29.93000 726.000
30.14000 657.000
30.35000 658.000
30.56000 671.000
30.77000 632.000
30.98000 572.000
31.19000 593.000
31.40000 596.000
31.61000 553.000
31.82000 597.000
32.03000 582.000
32.24000 529.000
32.45000 564.000
32.66000 490.000
32.87000 486.000
33.08000 483.000
33.29000 437.000
33.50000 431.000
33.71000 451.000
33.92000 429.000
34.13000 431.000
34.34000 413.000
34.55000 432.000
34.76000 436.000
34.97000 450.000
35.18000 505.000
35.39000 513.000
35.60000 528.000
35.81000 522.000
36.02000 526.000
36.23000 468.000
36.44000 482.000
36.65000 500.000
36.86000 496.000
37.07000 453.000
37.28000 481.000
37.49000 461.000
37.70000 433.000
37.91000 435.000
38.12000 414.000
38.33000 403.000
38.54000 402.000
38.75000 412.000
38.96000 400.000
39.17000 406.000
39.38000 388.000
39.59000 388.000
39.80000 355.000
40.01000 379.000
40.22000 377.000
40.43000 350.000
40.64000 359.000
40.85000 375.000
41.06000 357.000
41.27000 344.000
41.48000 324.000
41.69000 361.000
41.90000 325.000
42.11000 350.000
42.32000 347.000
42.53000 327.000
42.74000 368.000
42.95000 371.000
43.16000 394.000
43.37000 457.000
43.58000 392.000
43.79000 390.000
44.00000 370.000
44.21000 365.000
44.42000 358.000
44.63000 356.000
44.84000 359.000
45.05000 376.000
45.26000 348.000
45.47000 370.000
45.68000 353.000
45.89000 329.000
46.10000 317.000
46.31000 324.000
46.52000 296.000
46.73000 308.000
46.94000 308.000
47.15000 300.000
47.36000 308.000
47.57000 275.000
47.78000 289.000
47.99000 291.000
48.20000 259.000
48.41000 272.000
48.62000 270.000
48.83000 264.000
49.04000 253.000
49.25000 263.000
49.46000 270.000
49.67000 231.000
49.88000 256.000
50.09000 235.000
50.30000 256.000
50.51000 242.000
50.72000 252.000
50.93000 280.000
51.14000 268.000
51.35000 272.000
51.56000 268.000
51.77000 261.000
51.98000 273.000
52.19000 269.000
52.40000 250.000
52.61000 253.000
52.82000 274.000
53.03000 253.000
53.24000 270.000
53.45000 241.000
53.66000 255.000
53.87000 229.000
54.08000 251.000
54.29000 251.000
54.50000 265.000
54.71000 230.000
54.92000 255.000
55.13000 237.000
55.34000 237.000
55.55000 250.000
55.76000 230.000
55.97000 233.000
56.18000 256.000
56.39000 228.000
56.60000 248.000
56.81000 249.000
57.02000 234.000
57.23000 233.000
57.44000 228.000
57.65000 258.000
57.86000 279.000
58.07000 274.000
58.28000 273.000
58.49000 274.000
58.70000 253.000
58.91000 258.000
59.12000 237.000
59.33000 238.000
59.54000 219.000
59.75000 226.000
59.96000 204.000
60.17000 201.000
60.38000 191.000
60.59000 205.000
60.80000 193.000
61.01000 214.000
61.22000 199.000
61.43000 202.000
61.64000 196.000
61.85000 185.000
61.98500 208.000