File: ISoD/xrd_data/HSC196_NM_range_5.xy
2.00000 5.000
2.21000 9.000
2.42000 3.000
2.63000 1.000
2.84000 115.000
3.05000 283.000
3.26000 285.000
3.47000 293.000
3.68000 304.000
3.89000 327.000
4.10000 312.000
4.31000 326.000
4.52000 387.000
4.73000 339.000
4.94000 364.000
5.15000 381.000
5.36000 407.000
5.57000 374.000
5.78000 440.000
5.99000 458.000
6.20000 400.000
6.41000 426.000
6.62000 423.000
6.83000 453.000
7.04000 424.000
7.25000 454.000
7.46000 469.000
7.67000 605.000
7.88000 1192.000
8.09000 755.000
8.30000 566.000
8.51000 536.000
8.72000 554.000
8.93000 511.000
9.14000 504.000
9.35000 533.000
9.56000 512.000
9.77000 615.000
9.98000 876.000
10.19000 815.000
10.40000 569.000
10.61000 565.000
10.82000 544.000
11.03000 491.000
11.24000 521.000
11.45000 490.000
11.66000 477.000
11.87000 492.000
12.08000 503.000
12.29000 472.000
12.50000 475.000
12.71000 504.000
12.92000 458.000
13.13000 510.000
13.34000 491.000
13.55000 493.000
13.76000 466.000
13.97000 487.000
14.18000 454.000
14.39000 488.000
14.60000 486.000
14.81000 494.000
15.02000 530.000
15.23000 606.000
15.44000 490.000
15.65000 500.000
15.86000 489.000
16.07000 474.000
16.28000 473.000
16.49000 499.000
16.70000 480.000
16.91000 469.000
17.12000 504.000
17.33000 483.000
17.54000 497.000
17.75000 484.000
17.96000 436.000
18.17000 505.000
18.38000 529.000
18.59000 683.000
18.80000 580.000
19.01000 524.000
19.22000 511.000
19.43000 502.000
19.64000 504.000
19.85000 536.000
20.06000 485.000
20.27000 504.000
20.48000 534.000
20.69000 531.000
20.90000 551.000
21.11000 520.000
21.32000 564.000
21.53000 551.000
21.74000 589.000
21.95000 656.000
22.16000 709.000
22.37000 665.000
22.58000 661.000
22.79000 766.000
23.00000 888.000
23.21000 741.000
23.42000 657.000
23.63000 624.000
23.84000 672.000
24.05000 726.000
24.26000 653.000
24.47000 741.000
24.68000 806.000
24.89000 786.000
25.10000 763.000
25.31000 800.000
25.52000 853.000
25.73000 933.000
25.94000 834.000
26.15000 804.000
26.36000 818.000
26.57000 893.000
26.78000 875.000
26.99000 997.000
27.20000 1015.000
27.41000 1293.000
27.62000 2574.000
27.83000 3236.000
28.04000 2467.000
28.25000 1761.000
28.46000 1319.000
28.67000 1031.000
28.88000 941.000
29.09000 950.000
29.30000 785.000
29.51000 733.000
29.72000 748.000
29.93000 755.000
30.14000 742.000
30.35000 834.000
30.56000 787.000
30.77000 714.000
30.98000 672.000
31.19000 665.000
31.40000 637.000
31.61000 623.000
31.82000 659.000
32.03000 645.000
32.24000 718.000
32.45000 689.000
32.66000 535.000
32.87000 486.000
33.08000 503.000
33.29000 447.000
33.50000 452.000
33.71000 422.000
33.92000 458.000
34.13000 447.000
34.34000 446.000
34.55000 432.000
34.76000 433.000
34.97000 434.000
35.18000 518.000
35.39000 698.000
35.60000 592.000
35.81000 529.000
36.02000 474.000
36.23000 509.000
36.44000 558.000
36.65000 542.000
36.86000 470.000
37.07000 488.000
37.28000 516.000
37.49000 546.000
37.70000 489.000
37.91000 475.000
38.12000 465.000
38.33000 458.000
38.54000 438.000
38.75000 453.000
38.96000 437.000
39.17000 390.000
39.38000 380.000
39.59000 395.000
39.80000 394.000
40.01000 454.000
40.22000 435.000
40.43000 434.000
40.64000 389.000
40.85000 374.000
41.06000 371.000
41.27000 372.000
41.48000 340.000
41.69000 358.000
41.90000 365.000
42.11000 371.000
42.32000 367.000
42.53000 357.000
42.74000 361.000
42.95000 379.000
43.16000 512.000
43.37000 553.000
43.58000 459.000
43.79000 381.000
44.00000 378.000
44.21000 399.000
44.42000 467.000
44.63000 430.000
44.84000 397.000
45.05000 377.000
45.26000 394.000
45.47000 377.000
45.68000 412.000
45.89000 384.000
46.10000 381.000
46.31000 382.000
46.52000 343.000
46.73000 340.000
46.94000 351.000
47.15000 346.000
47.36000 290.000
47.57000 283.000
47.78000 301.000
47.99000 325.000
48.20000 266.000
48.41000 294.000
48.62000 264.000
48.83000 265.000
49.04000 262.000
49.25000 279.000
49.46000 273.000
49.67000 270.000
49.88000 270.000
50.09000 286.000
50.30000 282.000
50.51000 300.000
50.72000 289.000
50.93000 267.000
51.14000 292.000
51.35000 270.000
51.56000 308.000
51.77000 288.000
51.98000 267.000
52.19000 270.000
52.40000 277.000
52.61000 283.000
52.82000 324.000
53.03000 302.000
53.24000 288.000
53.45000 248.000
53.66000 261.000
53.87000 288.000
54.08000 258.000
54.29000 264.000
54.50000 263.000
54.71000 260.000
54.92000 243.000
55.13000 263.000
55.34000 235.000
55.55000 233.000
55.76000 263.000
55.97000 235.000
56.18000 247.000
56.39000 247.000
56.60000 241.000
56.81000 244.000
57.02000 261.000
57.23000 295.000
57.44000 294.000
57.65000 287.000
57.86000 291.000
58.07000 276.000
58.28000 275.000
58.49000 271.000
58.70000 266.000
58.91000 248.000
59.12000 235.000
59.33000 245.000
59.54000 255.000
59.75000 253.000
59.96000 234.000
60.17000 240.000
60.38000 232.000
60.59000 253.000
60.80000 240.000
61.01000 230.000
61.22000 242.000
61.43000 220.000
61.64000 232.000
61.85000 216.000
61.98500 229.000