File: ISoD/xrd_data/HSC196_NM_ranges_combined.xy
2.0 35.0
2.21 39.0
2.42 24.0
2.63 24.0
2.84 970.0
3.05 2117.0
3.26 2203.0
3.47 2344.0
3.68 2446.0
3.89 2433.0
4.1 2614.0
4.31 2722.0
4.52 2811.0
4.73 2736.0
4.94 2922.0
5.15 3114.0
5.36 3151.0
5.57 3178.0
5.78 3356.0
5.99 3349.0
6.2 3264.0
6.41 3414.0
6.62 3444.0
6.83 3507.0
7.04 3583.0
7.25 3660.0
7.46 3859.0
7.67 4657.0
7.88 9487.0
8.09 6044.0
8.3 4590.0
8.51 4295.0
8.72 4208.0
8.93 4250.0
9.14 4169.0
9.35 4292.0
9.56 4409.0
9.77 4752.0
9.98 6656.0
10.19 6484.0
10.4 4564.0
10.61 4242.0
10.82 4105.0
11.03 4098.0
11.24 4025.0
11.45 4000.0
11.66 4071.0
11.87 3936.0
12.08 4102.0
12.29 3892.0
12.5 3883.0
12.71 3962.0
12.92 3837.0
13.13 3979.0
13.34 3949.0
13.55 3803.0
13.76 3874.0
13.97 3879.0
14.18 3825.0
14.39 3903.0
14.6 3886.0
14.81 3958.0
15.02 4350.0
15.23 4712.0
15.44 4073.0
15.65 3995.0
15.86 3874.0
16.07 3891.0
16.28 3793.0
16.49 3975.0
16.7 3824.0
16.91 3880.0
17.12 3907.0
17.33 3823.0
17.54 3948.0
17.75 3984.0
17.96 3896.0
18.17 4096.0
18.38 4408.0
18.59 5395.0
18.8 4740.0
19.01 4210.0
19.22 4083.0
19.43 4039.0
19.64 4071.0
19.85 4060.0
20.06 4103.0
20.27 4183.0
20.48 4356.0
20.69 4294.0
20.9 4375.0
21.11 4421.0
21.32 4578.0
21.53 4573.0
21.74 4873.0
21.95 5385.0
22.16 5520.0
22.37 5176.0
22.58 5330.0
22.79 6124.0
23.0 6939.0
23.21 5879.0
23.42 5413.0
23.63 5122.0
23.84 5289.0
24.05 5688.0
24.26 5399.0
24.47 6052.0
24.68 6227.0
24.89 6119.0
25.1 6095.0
25.31 6227.0
25.52 6806.0
25.73 7121.0
25.94 6672.0
26.15 6644.0
26.36 6697.0
26.57 6934.0
26.78 7066.0
26.99 7832.0
27.2 8361.0
27.41 10319.0
27.62 20339.0
27.83 26022.0
28.04 19817.0
28.25 13761.0
28.46 10319.0
28.67 8439.0
28.88 7393.0
29.09 7673.0
29.3 6569.0
29.51 6160.0
29.72 6206.0
29.93 5975.0
30.14 5970.0
30.35 6460.0
30.56 6368.0
30.77 5912.0
30.98 5326.0
31.19 5037.0
31.4 5243.0
31.61 5142.0
31.82 5260.0
32.03 5050.0
32.24 5680.0
32.45 5813.0
32.66 4344.0
32.87 3984.0
33.08 3903.0
33.29 3713.0
33.5 3562.0
33.71 3655.0
33.92 3553.0
34.13 3592.0
34.34 3552.0
34.55 3511.0
34.76 3563.0
34.97 3624.0
35.18 4070.0
35.39 5705.0
35.6 5070.0
35.81 3956.0
36.02 3831.0
36.23 4230.0
36.44 4544.0
36.65 4333.0
36.86 3678.0
37.07 3751.0
37.28 4102.0
37.49 4209.0
37.7 3976.0
37.91 3765.0
38.12 3644.0
38.33 3542.0
38.54 3853.0
38.75 3842.0
38.96 3575.0
39.17 3194.0
39.38 3058.0
39.59 3165.0
39.8 3261.0
40.01 3517.0
40.22 3458.0
40.43 3552.0
40.64 3342.0
40.85 3198.0
41.06 3021.0
41.27 2941.0
41.48 2887.0
41.69 2871.0
41.9 2866.0
42.11 2827.0
42.32 2844.0
42.53 2893.0
42.74 2910.0
42.95 3209.0
43.16 4282.0
43.37 4498.0
43.58 3593.0
43.79 3185.0
44.0 3040.0
44.21 3240.0
44.42 3671.0
44.63 3293.0
44.84 3301.0
45.05 3240.0
45.26 3263.0
45.47 3006.0
45.68 3078.0
45.89 3090.0
46.1 3083.0
46.31 3014.0
46.52 2874.0
46.73 2817.0
46.94 2742.0
47.15 2643.0
47.36 2529.0
47.57 2318.0
47.78 2365.0
47.99 2476.0
48.2 2289.0
48.41 2243.0
48.62 2230.0
48.83 2200.0
49.04 2192.0
49.25 2196.0
49.46 2211.0
49.67 2197.0
49.88 2192.0
50.09 2594.0
50.3 2254.0
50.51 2299.0
50.72 2299.0
50.93 2386.0
51.14 2323.0
51.35 2310.0
51.56 2398.0
51.77 2238.0
51.98 2100.0
52.19 2140.0
52.4 2173.0
52.61 2219.0
52.82 2385.0
53.03 2350.0
53.24 2296.0
53.45 2119.0
53.66 2116.0
53.87 2166.0
54.08 2165.0
54.29 2227.0
54.5 2150.0
54.71 2074.0
54.92 1941.0
55.13 2039.0
55.34 1995.0
55.55 1950.0
55.76 1962.0
55.97 1927.0
56.18 2066.0
56.39 2040.0
56.6 2046.0
56.81 2103.0
57.02 2212.0
57.23 2297.0
57.44 2372.0
57.65 2237.0
57.86 2198.0
58.07 2183.0
58.28 2243.0
58.49 2159.0
58.7 2091.0
58.91 1988.0
59.12 2064.0
59.33 1984.0
59.54 1964.0
59.75 1935.0
59.96 1927.0
60.17 1900.0
60.38 1908.0
60.59 2037.0
60.8 1955.0
61.01 1916.0
61.22 1905.0
61.43 1849.0
61.64 1748.0
61.85 1770.0
61.985 1707.0