File: ISoD/xrd_data/HSC196_NM_range_3.xy
2.00000 4.000
2.21000 5.000
2.42000 4.000
2.63000 6.000
2.84000 105.000
3.05000 270.000
3.26000 267.000
3.47000 296.000
3.68000 303.000
3.89000 306.000
4.10000 326.000
4.31000 368.000
4.52000 341.000
4.73000 347.000
4.94000 376.000
5.15000 381.000
5.36000 389.000
5.57000 389.000
5.78000 433.000
5.99000 409.000
6.20000 426.000
6.41000 450.000
6.62000 435.000
6.83000 450.000
7.04000 452.000
7.25000 451.000
7.46000 495.000
7.67000 593.000
7.88000 1255.000
8.09000 735.000
8.30000 588.000
8.51000 548.000
8.72000 540.000
8.93000 528.000
9.14000 524.000
9.35000 554.000
9.56000 564.000
9.77000 596.000
9.98000 829.000
10.19000 822.000
10.40000 564.000
10.61000 523.000
10.82000 510.000
11.03000 506.000
11.24000 475.000
11.45000 482.000
11.66000 493.000
11.87000 516.000
12.08000 530.000
12.29000 510.000
12.50000 515.000
12.71000 510.000
12.92000 459.000
13.13000 524.000
13.34000 510.000
13.55000 485.000
13.76000 488.000
13.97000 484.000
14.18000 478.000
14.39000 491.000
14.60000 467.000
14.81000 520.000
15.02000 530.000
15.23000 583.000
15.44000 535.000
15.65000 509.000
15.86000 499.000
16.07000 505.000
16.28000 484.000
16.49000 511.000
16.70000 481.000
16.91000 468.000
17.12000 495.000
17.33000 423.000
17.54000 481.000
17.75000 513.000
17.96000 467.000
18.17000 506.000
18.38000 546.000
18.59000 703.000
18.80000 590.000
19.01000 517.000
19.22000 517.000
19.43000 497.000
19.64000 509.000
19.85000 499.000
20.06000 501.000
20.27000 565.000
20.48000 520.000
20.69000 543.000
20.90000 576.000
21.11000 561.000
21.32000 565.000
21.53000 535.000
21.74000 615.000
21.95000 664.000
22.16000 694.000
22.37000 630.000
22.58000 682.000
22.79000 764.000
23.00000 893.000
23.21000 712.000
23.42000 707.000
23.63000 653.000
23.84000 682.000
24.05000 701.000
24.26000 696.000
24.47000 750.000
24.68000 789.000
24.89000 795.000
25.10000 735.000
25.31000 807.000
25.52000 858.000
25.73000 882.000
25.94000 802.000
26.15000 810.000
26.36000 852.000
26.57000 865.000
26.78000 897.000
26.99000 961.000
27.20000 1004.000
27.41000 1262.000
27.62000 2458.000
27.83000 3260.000
28.04000 2504.000
28.25000 1723.000
28.46000 1296.000
28.67000 1051.000
28.88000 930.000
29.09000 990.000
29.30000 839.000
29.51000 773.000
29.72000 746.000
29.93000 772.000
30.14000 732.000
30.35000 802.000
30.56000 799.000
30.77000 757.000
30.98000 673.000
31.19000 619.000
31.40000 648.000
31.61000 703.000
31.82000 636.000
32.03000 663.000
32.24000 722.000
32.45000 719.000
32.66000 530.000
32.87000 497.000
33.08000 480.000
33.29000 482.000
33.50000 454.000
33.71000 468.000
33.92000 448.000
34.13000 453.000
34.34000 452.000
34.55000 432.000
34.76000 444.000
34.97000 457.000
35.18000 509.000
35.39000 692.000
35.60000 653.000
35.81000 463.000
36.02000 495.000
36.23000 534.000
36.44000 539.000
36.65000 573.000
36.86000 465.000
37.07000 456.000
37.28000 519.000
37.49000 521.000
37.70000 496.000
37.91000 451.000
38.12000 449.000
38.33000 454.000
38.54000 517.000
38.75000 491.000
38.96000 476.000
39.17000 420.000
39.38000 377.000
39.59000 371.000
39.80000 380.000
40.01000 444.000
40.22000 439.000
40.43000 458.000
40.64000 457.000
40.85000 391.000
41.06000 371.000
41.27000 336.000
41.48000 352.000
41.69000 355.000
41.90000 367.000
42.11000 332.000
42.32000 349.000
42.53000 383.000
42.74000 358.000
42.95000 419.000
43.16000 566.000
43.37000 557.000
43.58000 439.000
43.79000 401.000
44.00000 368.000
44.21000 422.000
44.42000 449.000
44.63000 372.000
44.84000 412.000
45.05000 412.000
45.26000 402.000
45.47000 361.000
45.68000 350.000
45.89000 391.000
46.10000 385.000
46.31000 373.000
46.52000 352.000
46.73000 363.000
46.94000 332.000
47.15000 339.000
47.36000 318.000
47.57000 277.000
47.78000 281.000
47.99000 313.000
48.20000 306.000
48.41000 280.000
48.62000 269.000
48.83000 303.000
49.04000 264.000
49.25000 272.000
49.46000 278.000
49.67000 279.000
49.88000 278.000
50.09000 348.000
50.30000 282.000
50.51000 299.000
50.72000 299.000
50.93000 307.000
51.14000 295.000
51.35000 305.000
51.56000 313.000
51.77000 287.000
51.98000 263.000
52.19000 273.000
52.40000 274.000
52.61000 277.000
52.82000 286.000
53.03000 304.000
53.24000 285.000
53.45000 255.000
53.66000 248.000
53.87000 257.000
54.08000 260.000
54.29000 273.000
54.50000 269.000
54.71000 235.000
54.92000 239.000
55.13000 249.000
55.34000 259.000
55.55000 248.000
55.76000 257.000
55.97000 225.000
56.18000 256.000
56.39000 279.000
56.60000 257.000
56.81000 265.000
57.02000 275.000
57.23000 293.000
57.44000 306.000
57.65000 274.000
57.86000 279.000
58.07000 275.000
58.28000 280.000
58.49000 263.000
58.70000 258.000
58.91000 246.000
59.12000 230.000
59.33000 240.000
59.54000 236.000
59.75000 230.000
59.96000 261.000
60.17000 227.000
60.38000 255.000
60.59000 260.000
60.80000 261.000
61.01000 259.000
61.22000 257.000
61.43000 228.000
61.64000 213.000
61.85000 214.000
61.98500 211.000