File: ISoD/xrd_data/HSC196_NM_range_7.xy
2.00000 6.000
2.21000 6.000
2.42000 4.000
2.63000 4.000
2.84000 129.000
3.05000 263.000
3.26000 270.000
3.47000 298.000
3.68000 319.000
3.89000 289.000
4.10000 322.000
4.31000 355.000
4.52000 359.000
4.73000 341.000
4.94000 362.000
5.15000 394.000
5.36000 406.000
5.57000 424.000
5.78000 436.000
5.99000 424.000
6.20000 420.000
6.41000 421.000
6.62000 460.000
6.83000 443.000
7.04000 452.000
7.25000 483.000
7.46000 457.000
7.67000 572.000
7.88000 1203.000
8.09000 803.000
8.30000 570.000
8.51000 548.000
8.72000 491.000
8.93000 558.000
9.14000 523.000
9.35000 531.000
9.56000 570.000
9.77000 614.000
9.98000 835.000
10.19000 834.000
10.40000 575.000
10.61000 518.000
10.82000 543.000
11.03000 527.000
11.24000 505.000
11.45000 514.000
11.66000 506.000
11.87000 496.000
12.08000 498.000
12.29000 475.000
12.50000 489.000
12.71000 487.000
12.92000 509.000
13.13000 485.000
13.34000 513.000
13.55000 485.000
13.76000 514.000
13.97000 529.000
14.18000 477.000
14.39000 478.000
14.60000 516.000
14.81000 499.000
15.02000 560.000
15.23000 585.000
15.44000 512.000
15.65000 508.000
15.86000 474.000
16.07000 454.000
16.28000 496.000
16.49000 504.000
16.70000 462.000
16.91000 477.000
17.12000 486.000
17.33000 491.000
17.54000 506.000
17.75000 500.000
17.96000 518.000
18.17000 524.000
18.38000 573.000
18.59000 647.000
18.80000 580.000
19.01000 541.000
19.22000 543.000
19.43000 503.000
19.64000 530.000
19.85000 519.000
20.06000 535.000
20.27000 530.000
20.48000 555.000
20.69000 545.000
20.90000 583.000
21.11000 554.000
21.32000 631.000
21.53000 547.000
21.74000 629.000
21.95000 691.000
22.16000 713.000
22.37000 671.000
22.58000 672.000
22.79000 764.000
23.00000 853.000
23.21000 729.000
23.42000 654.000
23.63000 627.000
23.84000 671.000
24.05000 728.000
24.26000 710.000
24.47000 826.000
24.68000 779.000
24.89000 775.000
25.10000 738.000
25.31000 807.000
25.52000 878.000
25.73000 881.000
25.94000 819.000
26.15000 877.000
26.36000 855.000
26.57000 879.000
26.78000 924.000
26.99000 990.000
27.20000 1042.000
27.41000 1321.000
27.62000 2604.000
27.83000 3259.000
28.04000 2453.000
28.25000 1783.000
28.46000 1283.000
28.67000 1099.000
28.88000 911.000
29.09000 996.000
29.30000 835.000
29.51000 826.000
29.72000 786.000
29.93000 750.000
30.14000 719.000
30.35000 826.000
30.56000 803.000
30.77000 767.000
30.98000 689.000
31.19000 642.000
31.40000 640.000
31.61000 626.000
31.82000 681.000
32.03000 657.000
32.24000 709.000
32.45000 768.000
32.66000 556.000
32.87000 489.000
33.08000 491.000
33.29000 455.000
33.50000 442.000
33.71000 443.000
33.92000 458.000
34.13000 452.000
34.34000 448.000
34.55000 430.000
34.76000 441.000
34.97000 432.000
35.18000 506.000
35.39000 754.000
35.60000 620.000
35.81000 487.000
36.02000 505.000
36.23000 539.000
36.44000 563.000
36.65000 519.000
36.86000 482.000
37.07000 450.000
37.28000 509.000
37.49000 524.000
37.70000 506.000
37.91000 466.000
38.12000 470.000
38.33000 409.000
38.54000 487.000
38.75000 479.000
38.96000 444.000
39.17000 408.000
39.38000 378.000
39.59000 396.000
39.80000 411.000
40.01000 454.000
40.22000 425.000
40.43000 467.000
40.64000 433.000
40.85000 407.000
41.06000 394.000
41.27000 398.000
41.48000 361.000
41.69000 351.000
41.90000 347.000
42.11000 347.000
42.32000 373.000
42.53000 347.000
42.74000 349.000
42.95000 402.000
43.16000 531.000
43.37000 571.000
43.58000 444.000
43.79000 409.000
44.00000 383.000
44.21000 408.000
44.42000 444.000
44.63000 400.000
44.84000 420.000
45.05000 410.000
45.26000 415.000
45.47000 377.000
45.68000 394.000
45.89000 386.000
46.10000 375.000
46.31000 360.000
46.52000 336.000
46.73000 341.000
46.94000 366.000
47.15000 316.000
47.36000 338.000
47.57000 272.000
47.78000 286.000
47.99000 285.000
48.20000 294.000
48.41000 282.000
48.62000 283.000
48.83000 291.000
49.04000 279.000
49.25000 281.000
49.46000 280.000
49.67000 271.000
49.88000 267.000
50.09000 326.000
50.30000 284.000
50.51000 280.000
50.72000 278.000
50.93000 272.000
51.14000 292.000
51.35000 302.000
51.56000 305.000
51.77000 282.000
51.98000 295.000
52.19000 280.000
52.40000 279.000
52.61000 295.000
52.82000 271.000
53.03000 287.000
53.24000 288.000
53.45000 259.000
53.66000 256.000
53.87000 296.000
54.08000 257.000
54.29000 304.000
54.50000 292.000
54.71000 294.000
54.92000 262.000
55.13000 260.000
55.34000 260.000
55.55000 240.000
55.76000 269.000
55.97000 248.000
56.18000 269.000
56.39000 258.000
56.60000 246.000
56.81000 269.000
57.02000 273.000
57.23000 284.000
57.44000 281.000
57.65000 270.000
57.86000 287.000
58.07000 257.000
58.28000 281.000
58.49000 292.000
58.70000 250.000
58.91000 244.000
59.12000 270.000
59.33000 263.000
59.54000 225.000
59.75000 252.000
59.96000 267.000
60.17000 266.000
60.38000 244.000
60.59000 254.000
60.80000 223.000
61.01000 247.000
61.22000 226.000
61.43000 243.000
61.64000 232.000
61.85000 203.000
61.98500 216.000