File: ISoD/xrd_data/HSC196_NM_range_1.xy
2.00000 2.000
2.21000 4.000
2.42000 2.000
2.63000 0.000
2.84000 132.000
3.05000 239.000
3.26000 262.000
3.47000 268.000
3.68000 298.000
3.89000 274.000
4.10000 293.000
4.31000 323.000
4.52000 318.000
4.73000 315.000
4.94000 340.000
5.15000 369.000
5.36000 364.000
5.57000 363.000
5.78000 379.000
5.99000 418.000
6.20000 401.000
6.41000 433.000
6.62000 402.000
6.83000 382.000
7.04000 464.000
7.25000 442.000
7.46000 474.000
7.67000 562.000
7.88000 1110.000
8.09000 748.000
8.30000 541.000
8.51000 501.000
8.72000 501.000
8.93000 509.000
9.14000 473.000
9.35000 515.000
9.56000 502.000
9.77000 559.000
9.98000 801.000
10.19000 766.000
10.40000 534.000
10.61000 515.000
10.82000 466.000
11.03000 479.000
11.24000 470.000
11.45000 504.000
11.66000 514.000
11.87000 449.000
12.08000 488.000
12.29000 475.000
12.50000 449.000
12.71000 454.000
12.92000 459.000
13.13000 458.000
13.34000 488.000
13.55000 480.000
13.76000 428.000
13.97000 464.000
14.18000 455.000
14.39000 470.000
14.60000 455.000
14.81000 448.000
15.02000 517.000
15.23000 566.000
15.44000 526.000
15.65000 465.000
15.86000 470.000
16.07000 491.000
16.28000 453.000
16.49000 502.000
16.70000 472.000
16.91000 460.000
17.12000 456.000
17.33000 483.000
17.54000 444.000
17.75000 470.000
17.96000 503.000
18.17000 478.000
18.38000 563.000
18.59000 667.000
18.80000 582.000
19.01000 518.000
19.22000 511.000
19.43000 503.000
19.64000 482.000
19.85000 505.000
20.06000 495.000
20.27000 512.000
20.48000 544.000
20.69000 530.000
20.90000 490.000
21.11000 526.000
21.32000 545.000
21.53000 585.000
21.74000 598.000
21.95000 651.000
22.16000 648.000
22.37000 617.000
22.58000 631.000
22.79000 755.000
23.00000 823.000
23.21000 736.000
23.42000 661.000
23.63000 615.000
23.84000 646.000
24.05000 661.000
24.26000 686.000
24.47000 743.000
24.68000 762.000
24.89000 732.000
25.10000 753.000
25.31000 709.000
25.52000 830.000
25.73000 881.000
25.94000 845.000
26.15000 789.000
26.36000 800.000
26.57000 854.000
26.78000 831.000
26.99000 957.000
27.20000 1077.000
27.41000 1242.000
27.62000 2459.000
27.83000 3191.000
28.04000 2414.000
28.25000 1655.000
28.46000 1262.000
28.67000 1016.000
28.88000 895.000
29.09000 916.000
29.30000 793.000
29.51000 764.000
29.72000 781.000
29.93000 727.000
30.14000 731.000
30.35000 788.000
30.56000 771.000
30.77000 700.000
30.98000 611.000
31.19000 614.000
31.40000 660.000
31.61000 637.000
31.82000 631.000
32.03000 604.000
32.24000 731.000
32.45000 735.000
32.66000 563.000
32.87000 480.000
33.08000 457.000
33.29000 452.000
33.50000 421.000
33.71000 476.000
33.92000 437.000
34.13000 439.000
34.34000 431.000
34.55000 455.000
34.76000 463.000
34.97000 452.000
35.18000 498.000
35.39000 699.000
35.60000 634.000
35.81000 486.000
36.02000 475.000
36.23000 515.000
36.44000 550.000
36.65000 551.000
36.86000 421.000
37.07000 459.000
37.28000 490.000
37.49000 521.000
37.70000 472.000
37.91000 435.000
38.12000 441.000
38.33000 451.000
38.54000 498.000
38.75000 481.000
38.96000 447.000
39.17000 361.000
39.38000 395.000
39.59000 373.000
39.80000 403.000
40.01000 427.000
40.22000 439.000
40.43000 424.000
40.64000 402.000
40.85000 408.000
41.06000 352.000
41.27000 352.000
41.48000 355.000
41.69000 351.000
41.90000 345.000
42.11000 358.000
42.32000 340.000
42.53000 360.000
42.74000 348.000
42.95000 419.000
43.16000 545.000
43.37000 540.000
43.58000 451.000
43.79000 400.000
44.00000 362.000
44.21000 379.000
44.42000 466.000
44.63000 418.000
44.84000 434.000
45.05000 417.000
45.26000 413.000
45.47000 370.000
45.68000 385.000
45.89000 389.000
46.10000 380.000
46.31000 370.000
46.52000 375.000
46.73000 335.000
46.94000 350.000
47.15000 339.000
47.36000 308.000
47.57000 291.000
47.78000 301.000
47.99000 297.000
48.20000 301.000
48.41000 281.000
48.62000 313.000
48.83000 273.000
49.04000 282.000
49.25000 278.000
49.46000 267.000
49.67000 264.000
49.88000 273.000
50.09000 311.000
50.30000 285.000
50.51000 278.000
50.72000 283.000
50.93000 307.000
51.14000 293.000
51.35000 264.000
51.56000 282.000
51.77000 264.000
51.98000 243.000
52.19000 266.000
52.40000 267.000
52.61000 289.000
52.82000 294.000
53.03000 270.000
53.24000 288.000
53.45000 273.000
53.66000 263.000
53.87000 260.000
54.08000 284.000
54.29000 282.000
54.50000 266.000
54.71000 254.000
54.92000 257.000
55.13000 248.000
55.34000 259.000
55.55000 242.000
55.76000 251.000
55.97000 251.000
56.18000 254.000
56.39000 262.000
56.60000 247.000
56.81000 250.000
57.02000 282.000
57.23000 265.000
57.44000 292.000
57.65000 308.000
57.86000 251.000
58.07000 289.000
58.28000 292.000
58.49000 293.000
58.70000 275.000
58.91000 247.000
59.12000 266.000
59.33000 239.000
59.54000 253.000
59.75000 250.000
59.96000 251.000
60.17000 245.000
60.38000 211.000
60.59000 274.000
60.80000 269.000
61.01000 240.000
61.22000 267.000
61.43000 240.000
61.64000 224.000
61.85000 217.000
61.98500 211.000