File: ISoD/xrd_data/HSC196_NM_range_8.xy
2.00000 2.000
2.21000 4.000
2.42000 5.000
2.63000 4.000
2.84000 131.000
3.05000 274.000
3.26000 276.000
3.47000 303.000
3.68000 312.000
3.89000 308.000
4.10000 327.000
4.31000 323.000
4.52000 358.000
4.73000 350.000
4.94000 400.000
5.15000 412.000
5.36000 376.000
5.57000 414.000
5.78000 419.000
5.99000 396.000
6.20000 409.000
6.41000 425.000
6.62000 462.000
6.83000 454.000
7.04000 474.000
7.25000 451.000
7.46000 514.000
7.67000 585.000
7.88000 1184.000
8.09000 737.000
8.30000 586.000
8.51000 555.000
8.72000 512.000
8.93000 547.000
9.14000 533.000
9.35000 529.000
9.56000 543.000
9.77000 591.000
9.98000 834.000
10.19000 775.000
10.40000 598.000
10.61000 518.000
10.82000 502.000
11.03000 535.000
11.24000 528.000
11.45000 511.000
11.66000 527.000
11.87000 488.000
12.08000 508.000
12.29000 506.000
12.50000 521.000
12.71000 487.000
12.92000 512.000
13.13000 473.000
13.34000 484.000
13.55000 508.000
13.76000 518.000
13.97000 499.000
14.18000 484.000
14.39000 485.000
14.60000 491.000
14.81000 512.000
15.02000 571.000
15.23000 570.000
15.44000 497.000
15.65000 501.000
15.86000 472.000
16.07000 505.000
16.28000 481.000
16.49000 456.000
16.70000 491.000
16.91000 512.000
17.12000 494.000
17.33000 493.000
17.54000 477.000
17.75000 504.000
17.96000 485.000
18.17000 531.000
18.38000 553.000
18.59000 652.000
18.80000 601.000
19.01000 556.000
19.22000 514.000
19.43000 510.000
19.64000 489.000
19.85000 514.000
20.06000 529.000
20.27000 514.000
20.48000 565.000
20.69000 541.000
20.90000 546.000
21.11000 595.000
21.32000 575.000
21.53000 594.000
21.74000 610.000
21.95000 686.000
22.16000 698.000
22.37000 687.000
22.58000 675.000
22.79000 778.000
23.00000 882.000
23.21000 731.000
23.42000 683.000
23.63000 679.000
23.84000 659.000
24.05000 716.000
24.26000 649.000
24.47000 765.000
24.68000 793.000
24.89000 777.000
25.10000 797.000
25.31000 846.000
25.52000 833.000
25.73000 910.000
25.94000 820.000
26.15000 845.000
26.36000 863.000
26.57000 864.000
26.78000 882.000
26.99000 959.000
27.20000 1016.000
27.41000 1297.000
27.62000 2602.000
27.83000 3367.000
28.04000 2485.000
28.25000 1739.000
28.46000 1304.000
28.67000 1053.000
28.88000 943.000
29.09000 974.000
29.30000 793.000
29.51000 793.000
29.72000 801.000
29.93000 787.000
30.14000 755.000
30.35000 806.000
30.56000 806.000
30.77000 733.000
30.98000 660.000
31.19000 642.000
31.40000 636.000
31.61000 663.000
31.82000 669.000
32.03000 619.000
32.24000 701.000
32.45000 723.000
32.66000 539.000
32.87000 534.000
33.08000 513.000
33.29000 470.000
33.50000 467.000
33.71000 441.000
33.92000 445.000
34.13000 476.000
34.34000 459.000
34.55000 454.000
34.76000 460.000
34.97000 463.000
35.18000 503.000
35.39000 742.000
35.60000 675.000
35.81000 513.000
36.02000 488.000
36.23000 559.000
36.44000 575.000
36.65000 512.000
36.86000 444.000
37.07000 502.000
37.28000 506.000
37.49000 511.000
37.70000 514.000
37.91000 485.000
38.12000 442.000
38.33000 464.000
38.54000 476.000
38.75000 476.000
38.96000 463.000
39.17000 416.000
39.38000 367.000
39.59000 407.000
39.80000 442.000
40.01000 420.000
40.22000 426.000
40.43000 433.000
40.64000 416.000
40.85000 399.000
41.06000 379.000
41.27000 384.000
41.48000 376.000
41.69000 389.000
41.90000 343.000
42.11000 344.000
42.32000 360.000
42.53000 365.000
42.74000 377.000
42.95000 393.000
43.16000 557.000
43.37000 563.000
43.58000 434.000
43.79000 392.000
44.00000 392.000
44.21000 433.000
44.42000 453.000
44.63000 423.000
44.84000 403.000
45.05000 420.000
45.26000 407.000
45.47000 369.000
45.68000 407.000
45.89000 416.000
46.10000 405.000
46.31000 404.000
46.52000 395.000
46.73000 379.000
46.94000 336.000
47.15000 330.000
47.36000 319.000
47.57000 287.000
47.78000 300.000
47.99000 317.000
48.20000 270.000
48.41000 285.000
48.62000 284.000
48.83000 271.000
49.04000 277.000
49.25000 296.000
49.46000 259.000
49.67000 271.000
49.88000 268.000
50.09000 340.000
50.30000 276.000
50.51000 286.000
50.72000 299.000
50.93000 315.000
51.14000 292.000
51.35000 303.000
51.56000 310.000
51.77000 296.000
51.98000 249.000
52.19000 279.000
52.40000 282.000
52.61000 274.000
52.82000 302.000
53.03000 296.000
53.24000 294.000
53.45000 275.000
53.66000 267.000
53.87000 259.000
54.08000 263.000
54.29000 286.000
54.50000 254.000
54.71000 245.000
54.92000 221.000
55.13000 254.000
55.34000 238.000
55.55000 258.000
55.76000 214.000
55.97000 261.000
56.18000 248.000
56.39000 263.000
56.60000 269.000
56.81000 257.000
57.02000 282.000
57.23000 311.000
57.44000 320.000
57.65000 272.000
57.86000 270.000
58.07000 272.000
58.28000 270.000
58.49000 269.000
58.70000 268.000
58.91000 239.000
59.12000 286.000
59.33000 250.000
59.54000 273.000
59.75000 224.000
59.96000 223.000
60.17000 235.000
60.38000 243.000
60.59000 235.000
60.80000 258.000
61.01000 218.000
61.22000 227.000
61.43000 222.000
61.64000 206.000
61.85000 221.000
61.98500 209.000