File: ISoD/xrd_data/HSC196.xy
2.00000 2.000
2.21000 3.000
2.42000 3.000
2.63000 117.000
2.84000 106.000
3.05000 122.000
3.26000 105.000
3.47000 108.000
3.68000 118.000
3.89000 137.000
4.10000 137.000
4.31000 129.000
4.52000 135.000
4.73000 136.000
4.94000 128.000
5.15000 146.000
5.36000 161.000
5.57000 153.000
5.78000 144.000
5.99000 152.000
6.20000 162.000
6.41000 167.000
6.62000 158.000
6.83000 175.000
7.04000 170.000
7.25000 185.000
7.46000 192.000
7.67000 228.000
7.88000 463.000
8.09000 295.000
8.30000 225.000
8.51000 212.000
8.72000 214.000
8.93000 207.000
9.14000 184.000
9.35000 205.000
9.56000 191.000
9.77000 210.000
9.98000 343.000
10.19000 346.000
10.40000 218.000
10.61000 192.000
10.82000 192.000
11.03000 187.000
11.24000 187.000
11.45000 189.000
11.66000 171.000
11.87000 159.000
12.08000 182.000
12.29000 171.000
12.50000 171.000
12.71000 200.000
12.92000 177.000
13.13000 187.000
13.34000 195.000
13.55000 185.000
13.76000 201.000
13.97000 180.000
14.18000 175.000
14.39000 185.000
14.60000 194.000
14.81000 177.000
15.02000 200.000
15.23000 240.000
15.44000 183.000
15.65000 175.000
15.86000 179.000
16.07000 183.000
16.28000 161.000
16.49000 178.000
16.70000 181.000
16.91000 179.000
17.12000 194.000
17.33000 178.000
17.54000 183.000
17.75000 157.000
17.96000 189.000
18.17000 190.000
18.38000 210.000
18.59000 259.000
18.80000 241.000
19.01000 216.000
19.22000 189.000
19.43000 184.000
19.64000 180.000
19.85000 181.000
20.06000 205.000
20.27000 204.000
20.48000 189.000
20.69000 211.000
20.90000 195.000
21.11000 198.000
21.32000 211.000
21.53000 224.000
21.74000 235.000
21.95000 290.000
22.16000 298.000
22.37000 231.000
22.58000 272.000
22.79000 313.000
23.00000 362.000
23.21000 289.000
23.42000 258.000
23.63000 239.000
23.84000 254.000
24.05000 283.000
24.26000 273.000
24.47000 295.000
24.68000 306.000
24.89000 283.000
25.10000 285.000
25.31000 305.000
25.52000 359.000
25.73000 402.000
25.94000 348.000
26.15000 336.000
26.36000 353.000
26.57000 318.000
26.78000 338.000
26.99000 363.000
27.20000 398.000
27.41000 458.000
27.62000 866.000
27.83000 1425.000
28.04000 1039.000
28.25000 713.000
28.46000 518.000
28.67000 472.000
28.88000 357.000
29.09000 397.000
29.30000 329.000
29.51000 317.000
29.72000 294.000
29.93000 297.000
30.14000 280.000
30.35000 312.000
30.56000 304.000
30.77000 305.000
30.98000 246.000
31.19000 247.000
31.40000 271.000
31.61000 279.000
31.82000 257.000
32.03000 246.000
32.24000 254.000
32.45000 347.000
32.66000 201.000
32.87000 188.000
33.08000 170.000
33.29000 178.000
33.50000 176.000
33.71000 160.000
33.92000 165.000
34.13000 180.000
34.34000 166.000
34.55000 175.000
34.76000 180.000
34.97000 192.000
35.18000 195.000
35.39000 287.000
35.60000 245.000
35.81000 199.000
36.02000 182.000
36.23000 200.000
36.44000 221.000
36.65000 219.000
36.86000 166.000
37.07000 157.000
37.28000 210.000
37.49000 214.000
37.70000 214.000
37.91000 186.000
38.12000 191.000
38.33000 188.000
38.54000 177.000
38.75000 203.000
38.96000 194.000
39.17000 139.000
39.38000 138.000
39.59000 145.000
39.80000 160.000
40.01000 183.000
40.22000 189.000
40.43000 161.000
40.64000 174.000
40.85000 153.000
41.06000 145.000
41.27000 135.000
41.48000 140.000
41.69000 126.000
41.90000 135.000
42.11000 133.000
42.32000 125.000
42.53000 152.000
42.74000 147.000
42.95000 161.000
43.16000 208.000
43.37000 248.000
43.58000 180.000
43.79000 164.000
44.00000 150.000
44.21000 160.000
44.42000 170.000
44.63000 191.000
44.84000 147.000
45.05000 154.000
45.26000 175.000
45.47000 174.000
45.68000 172.000
45.89000 158.000
46.10000 150.000
46.31000 141.000
46.52000 159.000
46.73000 153.000
46.94000 130.000
47.15000 120.000
47.36000 132.000
47.57000 119.000
47.78000 109.000
47.99000 128.000
48.20000 111.000
48.41000 107.000
48.62000 117.000
48.83000 114.000
49.04000 111.000
49.25000 95.000
49.46000 110.000
49.67000 108.000
49.88000 105.000
50.09000 143.000
50.30000 120.000
50.51000 111.000
50.72000 124.000
50.93000 121.000
51.14000 119.000
51.35000 114.000
51.56000 111.000
51.77000 101.000
51.98000 115.000
52.19000 95.000
52.40000 112.000
52.61000 95.000
52.82000 131.000
53.03000 124.000
53.24000 123.000
53.45000 106.000
53.66000 120.000
53.87000 103.000
54.08000 92.000
54.29000 110.000
54.50000 99.000
54.71000 104.000
54.92000 96.000
55.13000 106.000
55.34000 90.000
55.55000 103.000
55.76000 106.000
55.97000 99.000
56.18000 105.000
56.39000 115.000
56.60000 91.000
56.81000 112.000
57.02000 111.000
57.23000 115.000
57.44000 113.000
57.65000 131.000
57.86000 121.000
58.07000 109.000
58.28000 105.000
58.49000 97.000
58.70000 95.000
58.91000 98.000
59.12000 121.000
59.33000 103.000
59.54000 103.000
59.75000 112.000
59.96000 105.000
60.17000 102.000
60.38000 87.000
60.59000 83.000
60.80000 113.000
61.01000 80.000
61.22000 87.000
61.43000 104.000
61.64000 87.000
61.85000 108.000
61.98500 75.000