File: ISoD/xrd_data/HSC206.xy
2.00000 2.000
2.21000 3.000
2.42000 4.000
2.63000 2.000
2.84000 0.000
3.05000 157.000
3.26000 336.000
3.47000 300.000
3.68000 303.000
3.89000 261.000
4.10000 263.000
4.31000 262.000
4.52000 232.000
4.73000 265.000
4.94000 251.000
5.15000 241.000
5.36000 229.000
5.57000 236.000
5.78000 278.000
5.99000 243.000
6.20000 236.000
6.41000 249.000
6.62000 269.000
6.83000 247.000
7.04000 247.000
7.25000 264.000
7.46000 263.000
7.67000 259.000
7.88000 248.000
8.09000 251.000
8.30000 266.000
8.51000 282.000
8.72000 271.000
8.93000 285.000
9.14000 245.000
9.35000 263.000
9.56000 287.000
9.77000 282.000
9.98000 320.000
10.19000 296.000
10.40000 313.000
10.61000 319.000
10.82000 322.000
11.03000 316.000
11.24000 315.000
11.45000 315.000
11.66000 326.000
11.87000 362.000
12.08000 401.000
12.29000 404.000
12.50000 461.000
12.71000 505.000
12.92000 562.000
13.13000 555.000
13.34000 541.000
13.55000 478.000
13.76000 466.000
13.97000 473.000
14.18000 441.000
14.39000 436.000
14.60000 425.000
14.81000 423.000
15.02000 408.000
15.23000 437.000
15.44000 419.000
15.65000 412.000
15.86000 387.000
16.07000 396.000
16.28000 391.000
16.49000 401.000
16.70000 386.000
16.91000 397.000
17.12000 386.000
17.33000 390.000
17.54000 421.000
17.75000 416.000
17.96000 436.000
18.17000 441.000
18.38000 437.000
18.59000 433.000
18.80000 399.000
19.01000 428.000
19.22000 399.000
19.43000 440.000
19.64000 392.000
19.85000 412.000
20.06000 405.000
20.27000 415.000
20.48000 420.000
20.69000 428.000
20.90000 386.000
21.11000 419.000
21.32000 407.000
21.53000 437.000
21.74000 403.000
21.95000 422.000
22.16000 434.000
22.37000 408.000
22.58000 445.000
22.79000 415.000
23.00000 409.000
23.21000 421.000
23.42000 402.000
23.63000 451.000
23.84000 421.000
24.05000 430.000
24.26000 438.000
24.47000 418.000
24.68000 486.000
24.89000 496.000
25.10000 505.000
25.31000 542.000
25.52000 548.000
25.73000 579.000
25.94000 675.000
26.15000 761.000
26.36000 859.000
26.57000 1023.000
26.78000 1130.000
26.99000 1340.000
27.20000 1452.000
27.41000 1588.000
27.62000 1477.000
27.83000 1262.000
28.04000 1056.000
28.25000 900.000
28.46000 702.000
28.67000 624.000
28.88000 552.000
29.09000 523.000
29.30000 493.000
29.51000 466.000
29.72000 390.000
29.93000 387.000
30.14000 340.000
30.35000 386.000
30.56000 346.000
30.77000 339.000
30.98000 354.000
31.19000 317.000
31.40000 294.000
31.61000 292.000
31.82000 285.000
32.03000 292.000
32.24000 298.000
32.45000 281.000
32.66000 260.000
32.87000 240.000
33.08000 244.000
33.29000 239.000
33.50000 261.000
33.71000 262.000
33.92000 225.000
34.13000 244.000
34.34000 222.000
34.55000 214.000
34.76000 215.000
34.97000 219.000
35.18000 220.000
35.39000 232.000
35.60000 218.000
35.81000 205.000
36.02000 219.000
36.23000 212.000
36.44000 206.000
36.65000 203.000
36.86000 195.000
37.07000 185.000
37.28000 200.000
37.49000 213.000
37.70000 189.000
37.91000 185.000
38.12000 183.000
38.33000 194.000
38.54000 168.000
38.75000 192.000
38.96000 212.000
39.17000 200.000
39.38000 182.000
39.59000 199.000
39.80000 185.000
40.01000 195.000
40.22000 178.000
40.43000 181.000
40.64000 162.000
40.85000 177.000
41.06000 191.000
41.27000 192.000
41.48000 199.000
41.69000 174.000
41.90000 197.000
42.11000 191.000
42.32000 185.000
42.53000 192.000
42.74000 186.000
42.95000 211.000
43.16000 219.000
43.37000 214.000
43.58000 197.000
43.79000 195.000
44.00000 218.000
44.21000 188.000
44.42000 189.000
44.63000 208.000
44.84000 208.000
45.05000 208.000
45.26000 210.000
45.47000 176.000
45.68000 217.000
45.89000 222.000
46.10000 201.000
46.31000 195.000
46.52000 187.000
46.73000 192.000
46.94000 168.000
47.15000 162.000
47.36000 180.000
47.57000 185.000
47.78000 181.000
47.99000 171.000
48.20000 172.000
48.41000 163.000
48.62000 181.000
48.83000 175.000
49.04000 162.000
49.25000 169.000
49.46000 158.000
49.67000 180.000
49.88000 177.000
50.09000 160.000
50.30000 168.000
50.51000 154.000
50.72000 162.000
50.93000 159.000
51.14000 150.000
51.35000 149.000
51.56000 167.000
51.77000 148.000
51.98000 139.000
52.19000 140.000
52.40000 175.000
52.61000 172.000
52.82000 169.000
53.03000 160.000
53.24000 161.000
53.45000 172.000
53.66000 165.000
53.87000 161.000
54.08000 167.000
54.29000 140.000
54.50000 153.000
54.71000 161.000
54.92000 169.000
55.13000 160.000
55.34000 161.000
55.55000 169.000
55.76000 167.000
55.97000 171.000
56.18000 167.000
56.39000 149.000
56.60000 164.000
56.81000 164.000
57.02000 157.000
57.23000 140.000
57.44000 137.000
57.65000 142.000
57.86000 148.000
58.07000 134.000
58.28000 146.000
58.49000 126.000
58.70000 129.000
58.91000 139.000
59.12000 119.000
59.33000 129.000
59.54000 127.000
59.75000 121.000
59.96000 126.000
60.17000 120.000
60.38000 121.000
60.59000 128.000
60.80000 102.000
61.01000 113.000
61.22000 113.000
61.43000 122.000
61.64000 113.000
61.85000 110.000
61.98500 99.000